Time;Fp2-F4;F4-C4;C4-P4;P4-O2;C4-A1
11.718.750;-479.701;-204.976;-63.339;198.871;-223.291
11.738.281;-469.017;-178.724;-54.792;197.344;-195.513
11.757.813;-435.134;-173.840;-67.002;179.945;-193.681
11.777.344;-399.420;-165.904;-83.791;154.609;-207.112
11.796.875;-386.294;-144.231;-86.233;137.210;-219.628
11.816.406;-382.326;-135.989;-80.128;126.832;-226.954
11.835.938;-373.474;-140.568;-76.770;111.874;-231.532
11.855.469;-355.769;-143.315;-83.181;86.844;-244.353
11.875.000;-336.538;-144.231;-102.411;52.656;-279.762
11.894.531;-336.233;-149.725;-128.968;14.194;-332.570
11.914.063;-335.317;-174.145;-159.188;-22.741;-385.073
11.933.594;-320.971;-202.534;-184.524;-51.740;-409.799
11.953.125;-329.212;-207.723;-188.492;-61.203;-400.336
11.972.656;-363.095;-191.239;-172.924;-54.792;-383.852
11.992.188;-391.789;-161.935;-151.252;-42.888;-369.811
12.011.719;-406.441;-133.242;-136.600;-38.004;-353.632
12.031.250;-411.630;-117.369;-132.021;-41.056;-333.486
12.050.781;-401.252;-114.621;-129.884;-40.446;-310.592
12.070.313;-362.485;-124.695;-130.800;-33.425;-307.234
12.089.844;-312.729;-146.062;-137.210;-24.878;-343.864
12.109.375;-287.393;-163.462;-143.620;-17.552;-398.810
12.128.906;-286.172;-159.188;-145.757;-10.531;-435.440
12.148.438;-292.582;-132.326;-139.652;0.2900;-446.123
12.167.969;-313.034;-95.085;-121.642;27.625;-435.745
12.187.500;-342.033;-73.107;-101.801;56.929;-420.177
12.207.031;-346.001;-105.159;-99.054;77.991;-430.556
12.226.563;-305.708;-181.166;-110.653;87.454;-465.659
12.246.094;-263.584;-225.427;-110.653;98.138;-465.965
12.265.625;-268.773;-211.996;-92.338;110.653;-418.956
12.285.156;-306.319;-174.756;-69.139;114.316;-386.294
12.304.688;-336.538;-135.989;-48.382;109.737;-389.347
12.324.219;-350.580;-112.790;-35.867;106.685;-398.810
12.343.750;-368.590;-102.717;-32.509;106.990;-391.789
12.363.281;-396.062;-99.969;-34.951;103.632;-368.895
12.382.813;-407.357;-115.842;-50.214;89.286;-351.801
12.402.344;-382.021;-150.641;-85.317;61.508;-352.106
12.421.875;-348.138;-174.756;-121.337;36.172;-335.012
12.441.406;-339.591;-179.029;-137.821;30.372;-286.783
12.460.938;-346.306;-187.271;-142.094;37.698;-248.321
12.480.469;-342.949;-204.976;-147.283;44.414;-241.911
12.500.000;-325.549;-219.628;-152.778;46.856;-262.363
12.519.531;-311.508;-215.049;-149.725;48.382;-295.940
12.539.063;-302.656;-193.071;-140.568;46.245;-326.160
12.558.594;-271.825;-186.966;-145.147;32.509;-368.590
12.578.125;-215.049;-206.197;-164.988;10.226;-422.619
12.597.656;-196.123;-208.944;-173.230;0.0153;-431.166
12.617.188;-237.027;-183.608;-158.883;0.3205;-393.926
12.636.719;-275.488;-148.199;-139.957;0.5952;-360.958
12.656.250;-299.298;-101.496;-118.895;10.531;-327.686
12.675.781;-331.044;-66.697;-93.559;24.267;-287.393
12.695.313;-345.085;-77.381;-77.381;39.530;-262.668
12.714.844;-326.465;-108.822;-72.192;48.687;-259.005
12.734.375;-307.540;-118.590;-66.697;53.266;-262.057
12.753.906;-309.066;-110.653;-60.592;52.656;-261.447
12.773.438;-327.076;-99.969;-56.013;48.382;-254.121
12.792.969;-336.233;-97.833;-61.203;39.225;-270.910
12.812.500;-306.929;-126.832;-91.117;19.994;-348.443
12.832.031;-265.720;-174.451;-129.884;-0.1068;-443.376
12.851.563;-259.615;-202.228;-149.420;-11.447;-502.289
12.871.094;-263.584;-204.060;-153.083;-14.805;-548.687
12.890.625;-250.153;-198.565;-154.609;-16.636;-598.443
12.910.156;-242.521;-193.376;-150.641;-12.973;-604.548
12.929.688;-255.037;-181.471;-136.294;-0.4426;-551.129
12.949.219;-266.331;-164.377;-121.337;-0.1679;-494.963
12.968.750;-259.310;-151.557;-116.453;-10.226;-464.744
12.988.281;-247.100;-142.399;-114.621;-19.994;-432.387
13.007.813;-251.984;-131.410;-103.938;-14.194;-385.378
13.027.344;-277.930;-116.453;-81.044;10.226;-327.991
13.046.875;-311.508;-96.612;-51.740;41.667;-263.889
13.066.406;-336.844;-68.223;-24.267;67.918;-200.397
13.085.938;-345.696;-44.719;-10.226;81.349;-169.872
13.105.469;-320.360;-59.676;-23.046;73.107;-198.871
13.125.000;-261.752;-110.348;-57.234;48.687;-260.531
13.144.531;-208.028;-157.662;-87.454;25.794;-313.645
13.164.063;-182.998;-175.977;-98.748;15.415;-343.559
13.183.594;-187.882;-158.883;-89.896;23.046;-346.001
13.203.125;-205.586;-129.884;-69.444;46.551;-341.728
13.222.656;-204.060;-117.369;-52.961;70.665;-360.348
13.242.188;-195.513;-107.295;-41.667;91.117;-378.358
13.261.719;-212.912;-81.654;-22.436;116.453;-350.580
13.281.250;-251.374;-57.234;0.1374;142.705;-274.267
13.300.781;-282.509;-46.551;17.857;161.630;-180.861
13.320.313;-293.498;-51.435;21.520;172.009;-106.685
13.339.844;-305.708;-69.444;16.026;177.198;-66.392
13.359.375;-324.328;-93.559;0.8394;179.640;-40.446
13.378.906;-335.317;-111.264;0.1984;179.029;-20.604
13.398.438;-338.980;-107.906;-0.0458;175.977;-20.910
13.417.969;-330.739;-96.917;-0.1068;173.230;-50.519
13.437.500;-306.929;-99.969;-0.3205;170.482;-106.074
13.457.031;-271.520;-113.095;-0.7479;165.598;-183.608
13.476.563;-228.480;-123.168;-14.805;155.220;-270.604
13.496.094;-196.123;-121.947;-23.352;141.789;-347.527
13.515.625;-185.440;-112.485;-30.983;130.495;-401.252
13.535.156;-193.681;-99.664;-34.035;125.000;-425.061
13.554.688;-198.260;-92.338;-37.393;117.979;-438.797
13.574.219;-175.366;-102.411;-51.129;100.275;-468.712
13.593.750;-157.357;-116.148;-64.255;79.518;-500.458
13.613.281;-176.282;-118.590;-63.950;62.118;-510.226
13.632.813;-204.365;-111.264;-59.676;43.193;-497.405
13.652.344;-211.996;-106.074;-63.034;21.215;-479.396
13.671.875;-206.502;-116.758;-72.497;0.1984;-461.081
13.691.406;-208.944;-133.852;-75.549;-0.8089;-423.840
13.710.938;-221.459;-134.768;-66.392;-0.6868;-369.811
13.730.469;-226.038;-131.410;-57.845;-0.1679;-334.096
13.750.000;-208.028;-143.926;-62.118;-0.2289;-334.707
13.769.531;-198.565;-148.504;-66.087;-0.2289;-334.096
13.789.063;-222.375;-129.579;-56.013;0.7784;-302.045
13.808.594;-239.469;-108.516;-47.161;19.078;-269.078
13.828.125;-223.596;-98.138;-51.740;22.436;-251.984
13.847.656;-193.071;-100.885;-62.118;21.520;-231.227
13.867.188;-179.335;-109.127;-65.171;21.825;-196.429
13.886.719;-200.702;-105.464;-56.929;22.436;-149.725
13.906.250;-230.922;-96.001;-48.077;20.604;-107.295
13.925.781;-235.501;-95.696;-48.687;12.973;-99.359
13.945.313;-230.617;-102.411;-56.013;0.3816;-121.032
13.964.844;-234.585;-110.653;-60.897;0.0153;-138.736
13.984.375;-229.396;-117.063;-59.066;0.3205;-144.841
14.003.906;-215.659;-119.811;-50.824;0.9921;-147.589
14.023.438;-205.891;-119.505;-41.056;11.752;-157.967
14.042.969;-200.092;-121.642;-37.088;0.4426;-190.324
14.062.500;-196.123;-131.410;-42.582;-10.531;-238.858
14.082.031;-182.692;-148.504;-56.624;-31.899;-281.593
14.101.563;-162.851;-169.261;-74.328;-56.624;-313.339
14.121.094;-149.420;-178.419;-88.980;-77.076;-350.580
14.140.625;-161.935;-153.694;-83.486;-76.160;-373.779
14.160.156;-215.659;-110.348;-49.298;-46.551;-343.864
14.179.688;-277.930;-85.623;-0.9921;-0.5647;-288.919
14.199.219;-312.729;-81.960;15.110;26.709;-237.943
14.218.750;-331.044;-70.055;33.120;46.551;-172.924
14.238.281;-344.780;-53.266;43.193;48.382;-106.074
14.257.813;-339.896;-48.382;36.477;30.067;-67.308
14.277.344;-314.560;-42.582;20.910;0.4731;-68.223
14.296.875;-282.814;-39.835;0.6258;-15.720;-114.316
14.316.406;-249.847;-54.792;-10.531;-35.562;-196.123
14.335.938;-236.416;-74.023;-26.404;-56.013;-279.151
14.355.469;-254.121;-82.265;-25.794;-67.613;-324.328
14.375.000;-273.352;-84.707;-11.752;-67.002;-325.549
14.394.531;-275.488;-91.728;-0.4121;-65.781;-317.918
14.414.063;-272.436;-99.054;-0.7479;-74.023;-329.212
14.433.594;-268.162;-95.696;-0.9921;-85.928;-334.096
14.453.125;-257.173;-97.222;-0.9615;-91.117;-300.519
14.472.656;-246.795;-117.369;-0.8394;-84.707;-236.416
14.492.188;-236.111;-150.336;-11.142;-70.971;-171.398
14.511.719;-205.586;-181.777;-22.131;-57.234;-118.590
14.531.250;-180.250;-182.998;-27.320;-38.309;-57.540
14.550.781;-203.449;-153.083;-15.415;-11.447;11.447
14.570.313;-252.900;-122.863;0.0458;0.7479;62.424
14.589.844;-294.109;-103.327;0.8700;0.9310;94.475
14.609.375;-320.360;-82.265;13.889;-0.0763;120.116
14.628.906;-326.465;-60.592;15.720;-16.026;117.063
14.648.438;-310.592;-56.013;0.5647;-34.341;47.772
14.667.969;-280.678;-70.055;-11.752;-51.435;-65.476
14.687.500;-248.016;-85.623;-25.183;-64.255;-167.125
14.707.031;-226.343;-86.844;-29.762;-73.413;-234.585
14.726.563;-231.838;-65.171;-24.878;-79.212;-274.878
14.746.094;-260.226;-42.888;-11.142;-78.602;-303.571
14.765.625;-285.867;-38.004;0.8089;-69.750;-311.203
14.785.156;-289.530;-50.214;20.910;-57.540;-291.361
14.804.688;-267.552;-90.507;11.447;-52.961;-306.319
14.824.219;-235.501;-132.326;-10.531;-55.708;-392.705
14.843.750;-223.291;-132.326;-21.520;-52.656;-477.564
14.863.281;-236.722;-103.632;-19.078;-41.056;-493.132
14.882.813;-252.595;-83.486;-19.383;-34.951;-474.817
14.902.344;-250.458;-75.244;-28.236;-40.140;-481.227
14.921.875;-244.963;-58.455;-29.762;-42.888;-482.143
14.941.406;-248.932;-40.140;-22.131;-42.277;-435.440
14.960.938;-244.353;-49.603;-27.015;-53.266;-378.358
14.980.469;-227.564;-81.654;-48.382;-79.212;-331.349
15.000.000;-221.154;-99.359;-65.171;-102.106;-256.868
15.019.531;-242.827;-93.254;-65.476;-106.074;-153.083
15.039.063;-272.741;-83.791;-57.845;-93.254;-68.223
15.058.594;-277.625;-88.370;-54.182;-73.413;-36.783
15.078.125;-234.585;-114.927;-64.255;-58.150;-58.150
15.097.656;-164.988;-144.231;-76.465;-45.330;-86.538
15.117.188;-140.873;-137.210;-56.624;-22.131;-52.656
15.136.719;-190.324;-90.201;-0.2900;0.7784;41.667
15.156.250;-268.162;-37.698;53.877;33.120;136.905
15.175.781;-334.707;0.1374;99.664;56.929;201.313
15.195.313;-383.242;27.930;132.937;78.907;228.175
15.214.844;-412.546;34.035;146.673;85.012;218.407
15.234.375;-420.177;0.7173;133.852;64.560;172.924
15.253.906;-422.009;-34.951;104.853;26.099;114.316
15.273.438;-430.556;-66.087;76.770;-0.9921;61.813
15.292.969;-434.524;-84.402;53.571;-33.425;16.941
15.312.500;-428.419;-93.254;34.341;-45.330;-12.668
15.332.031;-424.145;-93.864;19.383;-48.382;-46.551
15.351.563;-424.756;-98.443;0.3205;-48.993;-119.811
15.371.094;-429.029;-107.295;-15.110;-51.435;-230.922
15.390.625;-448.871;-92.643;-22.131;-50.214;-327.686
15.410.156;-486.111;-55.708;-12.363;-46.245;-381.105
15.429.688;-526.404;-36.172;-0.1984;-50.519;-406.441
15.449.219;-555.708;-45.635;-0.2900;-65.476;-421.398
15.468.750;-582.265;-55.098;-10.226;-82.265;-443.376
15.488.281;-621.642;-48.687;-12.668;-94.475;-469.017
15.507.813;-647.589;-41.667;-12.057;-105.464;-489.469
15.527.344;-626.832;-47.772;-17.247;-119.811;-492.827
15.546.875;-574.328;-59.371;-27.015;-134.463;-453.449
15.566.406;-518.468;-66.697;-33.730;-144.536;-386.294
15.585.938;-467.796;-71.581;-36.172;-150.336;-345.696
15.605.469;-428.114;-78.297;-34.646;-149.420;-337.149
15.625.000;-414.988;-85.012;-22.741;-129.884;-298.382
15.644.531;-430.556;-91.117;0.0763;-94.475;-212.607
15.664.063;-447.344;-97.833;25.488;-60.897;-130.800
15.683.594;-456.197;-85.928;48.077;-36.783;-77.076
15.703.125;-480.922;-43.803;71.581;-19.078;-32.814
15.722.656;-514.499;0.1679;88.980;-0.5952;-0.1374
15.742.188;-507.784;20.299;87.759;-0.5647;-14.194
15.761.719;-453.755;18.162;67.002;-23.046;-64.560
15.781.250;-408.272;11.752;40.751;-45.024;-105.769
15.800.781;-404.304;0.2289;25.488;-57.234;-105.769
15.820.313;-427.198;0.3510;32.204;-55.708;-55.403
15.839.844;-447.039;22.741;55.098;-47.466;13.278
15.859.375;-445.208;37.393;77.076;-42.888;67.308
15.878.906;-422.619;35.256;90.201;-46.551;120.421
15.898.438;-390.568;23.962;92.338;-57.234;172.314
15.917.969;-359.432;15.720;86.538;-73.413;189.103
15.937.500;-324.023;17.857;77.991;-86.233;158.883
15.957.031;-275.488;14.194;64.560;-86.233;108.516
15.976.563;-231.838;0.5952;50.519;-69.139;78.602
15.996.094;-212.302;20.604;48.687;-41.361;73.718
16.015.625;-191.239;53.877;55.708;-20.604;73.718
16.035.156;-143.010;80.739;59.371;-16.636;64.560
16.054.688;-83.791;91.117;61.508;-23.962;44.109
16.074.219;-36.172;98.748;67.613;-34.341;28.541
16.093.750;-0.6258;110.653;74.328;-39.530;30.067
16.113.281;-0.5647;114.927;81.960;-32.814;52.045
16.132.813;-42.277;115.232;98.138;-15.110;103.938
16.152.344;-90.812;126.221;123.474;0.6258;176.893
16.171.875;-111.874;134.768;144.536;24.878;228.175
16.191.406;-97.222;126.832;154.304;41.972;230.922
16.210.938;-63.339;106.380;154.304;57.540;189.103
16.230.469;-11.752;83.791;142.399;62.118;126.832
16.250.000;25.794;88.065;132.631;56.929;112.179
16.269.531;12.973;130.800;145.147;59.371;183.303
16.289.063;-25.183;175.061;169.872;70.055;292.888
16.308.594;-56.929;201.313;189.713;75.549;401.557
16.328.125;-77.991;216.880;200.702;70.665;488.248
16.347.656;-83.486;223.291;205.281;59.982;528.236
16.367.188;-72.192;221.459;205.891;48.993;529.762
16.386.719;-46.245;218.101;203.755;38.004;511.752
16.406.250;-0.5647;209.860;194.902;25.183;457.418
16.425.781;51.435;188.797;177.503;12.973;342.949
16.445.313;103.938;165.904;159.188;0.4426;211.386
16.464.844;122.863;152.778;147.589;-0.5037;110.653
16.484.375;122.558;144.536;139.347;-23.352;34.646
16.503.906;123.474;140.873;135.684;-44.109;-0.6258
16.523.438;124.389;145.452;139.042;-59.982;-11.447
16.542.969;128.663;158.883;147.283;-70.055;-13.278
16.562.500;140.568;179.335;154.304;-80.128;-30.067
16.582.031;160.714;192.766;151.862;-101.496;-68.223
16.601.563;192.460;193.376;141.789;-135.684;-100.580
16.621.094;230.006;190.629;133.547;-166.514;-77.076
16.640.625;254.731;185.745;131.410;-179.335;0.0458
16.660.156;268.773;176.282;132.937;-177.808;84.402
16.679.688;293.803;160.714;130.495;-173.840;140.263
16.699.219;320.360;149.725;124.695;-167.430;182.692
16.718.750;316.087;149.115;125.305;-151.557;223.901
16.738.281;285.867;152.778;135.989;-129.579;242.827
16.757.813;249.847;163.462;153.083;-106.074;252.595
16.777.344;212.607;183.913;172.924;-82.570;295.635
16.796.875;182.082;208.639;190.934;-61.203;364.622
16.816.406;167.735;230.311;204.670;-42.277;420.788
16.835.938;169.872;243.437;212.607;-22.741;435.134
16.855.469;190.629;246.184;212.302;-0.5647;394.841
16.875.000;226.954;249.237;205.891;0.2289;297.772
16.894.531;256.563;268.468;205.891;0.6258;151.252
16.914.063;260.836;295.940;218.101;14.194;24.573
16.933.594;249.237;308.150;230.617;23.657;0.8700
16.953.125;237.637;299.298;233.059;28.846;72.802
16.972.656;238.248;281.288;225.122;28.846;125.305
16.992.188;255.037;263.889;209.554;23.962;136.294
17.011.719;280.067;249.237;189.103;12.668;133.852
17.031.250;297.161;233.364;170.482;-0.2595;154.915
17.050.781;295.024;218.407;162.241;-11.447;204.365
17.070.313;276.099;212.607;163.767;-0.9615;252.595
17.089.844;252.595;214.438;165.904;-0.3205;273.352
17.109.375;236.722;214.438;163.156;0.0153;266.331
17.128.906;235.806;202.839;154.915;-0.7173;245.879
17.148.438;258.089;177.808;140.568;-26.099;215.965
17.167.969;293.803;155.830;124.695;-45.940;181.166
17.187.500;323.107;148.810;114.011;-57.845;157.357
17.207.031;342.033;157.662;110.958;-59.676;149.420
17.226.563;341.422;180.250;117.369;-52.656;152.167
17.246.094;315.476;207.723;129.884;-44.719;177.503
17.265.625;290.751;228.480;141.789;-36.477;225.733
17.285.156;290.140;234.585;149.420;-16.636;274.878
17.304.688;306.319;235.806;154.304;18.162;307.234
17.324.219;331.349;241.300;155.220;53.266;300.824
17.343.750;356.074;247.711;149.115;69.444;264.805
17.363.281;360.348;249.542;139.042;62.729;241.300
17.382.813;353.632;235.501;126.221;35.256;232.448
17.402.344;354.243;209.860;109.432;-0.6563;230.617
17.421.875;353.632;194.597;94.475;-50.824;246.184
17.441.406;346.001;198.565;83.791;-85.928;271.215
17.460.938;332.570;210.165;77.686;-100.885;281.288
17.480.469;326.770;216.270;69.139;-99.969;257.173
17.500.000;346.001;219.017;53.266;-97.833;215.049
17.519.531;371.032;222.375;40.140;-100.275;206.197
17.539.063;370.116;220.543;40.446;-105.159;237.637
17.558.594;346.306;217.796;50.519;-109.737;266.636
17.578.125;318.529;221.764;64.560;-108.211;284.646
17.597.656;292.888;229.396;80.739;-96.612;301.435
17.617.188;275.488;233.059;94.780;-79.212;317.613
17.636.719;271.520;232.448;102.717;-64.560;337.759
17.656.250;270.299;228.175;103.327;-53.877;353.938
17.675.781;269.383;209.554;96.001;-41.972;345.391
17.695.313;280.678;182.387;85.317;-26.709;295.940
17.714.844;303.571;169.567;77.686;-10.836;210.165
17.734.375;331.960;177.503;68.223;-0.8394;123.779
17.753.906;368.895;188.187;50.824;-27.320;65.476
17.773.438;413.462;193.376;28.541;-57.845;38.309
17.792.969;448.260;205.281;14.194;-86.538;42.888
17.812.500;457.723;225.733;19.689;-107.295;65.476
17.832.031;441.239;253.816;46.551;-117.369;89.591
17.851.563;403.999;289.530;82.875;-113.400;143.926
17.871.094;361.874;320.055;113.400;-99.664;239.469
17.890.625;333.791;338.980;134.158;-86.538;326.160
17.910.156;327.076;346.306;145.452;-74.328;370.727
17.929.688;337.149;341.117;148.810;-58.455;375.611
17.949.219;346.306;327.686;147.894;-35.562;360.348
17.968.750;336.538;314.255;146.368;-0.7479;331.044
17.988.281;320.971;302.961;138.431;11.142;252.595
18.007.813;323.107;293.193;119.811;0.7173;123.779
18.027.344;343.864;278.236;96.612;-15.110;0.9921
18.046.875;366.453;255.037;76.160;-43.498;-54.792
18.066.406;380.800;232.143;58.761;-67.918;-88.980
18.085.938;392.705;202.228;34.951;-84.402;-115.232
18.105.469;387.210;164.377;11.142;-89.286;-149.725
18.125.000;337.759;145.452;0.8089;-82.570;-174.451
18.144.531;266.331;149.725;21.520;-74.634;-145.757
18.164.063;209.860;154.609;31.899;-71.276;-63.034
18.183.594;180.556;140.263;28.846;-71.581;15.110
18.203.125;167.125;113.400;15.415;-71.886;39.530
18.222.656;154.915;93.254;0.2289;-69.444;19.994
18.242.188;154.609;86.538;-0.7479;-69.139;-20.910
18.261.719;159.799;103.327;-0.6563;-70.360;-64.255
18.281.250;152.167;134.158;0.5952;-67.918;-67.002
18.300.781;138.431;150.946;18.162;-59.982;-14.499
18.320.313;118.284;153.388;26.404;-47.772;67.918
18.339.844;101.190;152.473;28.846;-39.835;143.315
18.359.375;97.222;150.336;23.962;-39.835;175.672
18.378.906;92.338;148.199;20.604;-38.309;173.840
18.398.438;77.381;143.315;22.436;-26.404;168.651
18.417.969;51.740;136.600;27.930;-0.3205;172.619
18.437.500;17.857;132.937;40.446;28.541;196.123
18.457.031;-17.247;135.073;57.234;59.371;218.407
18.476.563;-31.593;135.073;62.118;68.529;178.114
18.496.094;-0.6563;125.305;47.772;47.466;66.087
18.515.625;49.908;109.432;22.741;0.4731;-56.929
18.535.156;124.695;92.949;-0.4426;-46.245;-143.926
18.554.688;188.187;93.559;-18.468;-87.759;-179.029
18.574.219;211.996;121.947;-0.8089;-108.516;-172.619
18.593.750;201.313;157.051;15.110;-107.601;-156.136
18.613.281;170.788;171.398;37.698;-86.538;-139.652
18.632.813;143.926;160.409;50.214;-62.729;-142.094
18.652.344;148.810;135.379;48.993;-54.792;-183.913
18.671.875;165.293;109.737;42.888;-54.792;-212.912
18.691.406;157.051;94.475;43.498;-48.382;-178.419
18.710.938;133.852;90.812;51.129;-38.614;-107.295
18.730.469;117.979;98.138;59.982;-32.509;-40.140
18.750.000;115.537;101.190;61.203;-31.899;0.6258
18.769.531;129.884;88.980;48.077;-35.562;0.9310
18.789.063;156.136;77.991;27.625;-38.919;-27.320
18.808.594;175.366;77.076;14.499;-33.425;-48.993
18.828.125;179.335;84.707;13.584;-21.825;-33.730
18.847.656;184.524;99.969;16.026;-12.973;-23.962
18.867.188;203.449;116.148;0.9005;-16.331;-65.476
18.886.719;233.974;127.442;-0.4121;-33.425;-153.999
18.906.250;266.941;121.642;-16.026;-52.656;-248.321
18.925.781;288.309;102.106;-20.604;-60.592;-309.982
18.945.313;284.646;87.454;-12.668;-53.571;-324.328
18.964.844;265.720;65.476;0.2289;-36.477;-315.781
18.984.375;258.089;36.477;17.247;-20.910;-317.308
19.003.906;260.836;26.709;33.120;-12.668;-325.549
19.023.438;262.668;39.225;50.824;-0.8394;-322.497
19.042.969;268.162;67.308;67.918;-0.5037;-292.277
19.062.500;270.910;105.769;83.486;-0.2595;-236.416
19.082.031;271.520;130.800;92.338;-0.5952;-188.187
19.101.563;273.352;136.294;95.696;-13.278;-164.988
19.121.094;252.289;138.126;102.106;-13.889;-146.673
19.140.625;210.165;144.841;111.264;-0.4731;-122.253
19.160.156;177.503;149.420;114.927;0.4426;-113.400
19.179.688;161.935;148.504;113.095;0.9310;-143.926
19.199.219;170.177;140.873;105.159;0.9310;-200.702
19.218.750;209.249;114.316;83.791;0.0458;-258.089
19.238.281;256.258;66.087;55.708;-16.331;-315.781
19.257.813;277.930;41.667;46.551;-38.614;-359.127
19.277.344;262.057;71.886;66.697;-54.792;-348.443
19.296.875;220.238;114.011;96.306;-52.045;-271.825
19.316.406;178.724;129.579;112.485;-36.172;-176.282
19.335.938;155.525;125.611;113.400;-20.604;-115.232
19.355.469;151.862;116.758;112.485;-0.3816;-66.087
19.375.000;170.482;104.243;110.043;11.752;-0.0458
19.394.531;206.807;92.033;96.306;17.552;50.519
19.414.063;230.922;81.960;76.465;14.805;75.244
19.433.594;233.364;60.287;59.676;11.752;93.559
19.453.125;223.901;30.678;51.740;10.531;115.842
19.472.656;195.208;20.910;55.098;16.026;144.231
19.492.188;152.778;41.056;67.002;27.320;160.104
19.511.719;118.895;72.192;80.739;34.035;147.589
19.531.250;130.800;76.770;81.960;22.436;96.917
19.550.781;205.891;49.908;61.203;-13.584;-0.6868
19.570.313;275.794;47.161;38.614;-54.792;-121.337
19.589.844;276.099;92.949;38.614;-69.750;-169.872
19.609.375;244.048;142.705;55.708;-54.182;-155.525
19.628.906;237.027;154.915;68.223;-27.625;-143.315
19.648.438;263.889;125.000;57.845;-13.584;-176.587
19.667.969;302.045;80.128;26.404;-24.878;-244.658
19.687.500;331.960;45.635;-0.3510;-51.740;-286.783
19.707.031;331.654;34.035;-13.278;-75.244;-260.531
19.726.563;291.361;52.656;0.1679;-81.654;-170.177
19.746.094;234.890;86.538;32.204;-68.223;-37.393
19.765.625;176.893;112.790;64.560;-45.635;108.516
19.785.156;120.726;123.779;87.149;-26.404;241.911
19.804.688;84.707;117.063;92.338;-21.520;329.823
19.824.219;77.991;100.580;81.960;-32.509;346.001
19.843.750;80.433;93.559;72.497;-44.719;324.328
19.863.281;75.244;96.306;73.718;-45.940;293.498
19.882.813;72.802;104.243;78.602;-41.056;237.027
19.902.344;74.939;120.726;79.518;-35.256;167.125
19.921.875;83.181;141.178;76.465;-26.709;103.632
19.941.406;100.885;152.473;69.444;-20.910;51.129
19.960.938;125.611;140.568;52.961;-25.488;17.857
19.980.469;178.419;105.464;24.878;-43.498;-0.1984
20.000.000;-43.803;-0.5037;-34.035;-21.215;-536.783
20.019.531;-46.856;-18.468;-35.562;-0.4731;-545.330
20.039.063;-74.328;-40.446;-36.783;13.584;-509.310
20.058.594;-99.054;-68.529;-37.698;30.372;-465.049
20.078.125;-99.969;-102.106;-45.940;38.004;-452.839
20.097.656;-94.475;-126.221;-55.708;40.446;-449.481
20.117.188;-91.728;-136.905;-59.371;48.687;-434.524
20.136.719;-68.223;-145.147;-56.319;68.223;-421.703
20.156.250;-12.668;-156.136;-50.214;88.675;-425.672
20.175.781;44.109;-165.293;-48.993;93.254;-454.365
20.195.313;59.676;-151.862;-50.214;81.654;-486.416
20.214.844;32.509;-110.958;-45.940;69.444;-484.280
20.234.375;-0.7784;-65.781;-34.341;67.613;-450.397
20.253.906;-32.204;-38.004;-23.962;74.939;-418.651
20.273.438;-20.299;-39.530;-28.236;79.823;-406.136
20.292.969;0.2595;-66.087;-43.193;79.212;-406.136
20.312.500;17.857;-99.359;-60.897;70.055;-417.125
20.332.031;29.457;-110.958;-76.160;55.098;-424.756
20.351.563;0.7479;-90.201;-78.602;52.350;-394.231
20.371.094;-44.719;-62.424;-70.971;63.645;-346.917
20.390.625;-80.739;-42.888;-66.087;76.160;-331.654
20.410.156;-95.696;-28.236;-69.750;83.791;-354.548
20.429.688;-115.842;-18.468;-76.160;86.233;-414.377
20.449.219;-149.115;-14.805;-74.023;88.065;-479.090
20.468.750;-187.576;-18.773;-64.560;94.780;-513.278
20.488.281;-226.343;-32.204;-57.234;106.074;-535.562
20.507.813;-250.458;-66.087;-58.761;115.232;-563.645
20.527.344;-254.426;-108.211;-65.476;120.116;-569.750
20.546.875;-259.005;-117.674;-63.645;125.916;-539.225
20.566.406;-279.151;-85.928;-46.856;137.821;-501.068
20.585.938;-303.571;-42.888;-22.436;152.778;-476.648
20.605.469;-309.676;-12.057;-0.2289;164.377;-468.101
20.625.000;-298.077;0.7784;0.9921;169.872;-487.027
20.644.531;-283.730;28.236;19.383;171.703;-519.994
20.664.063;-269.994;49.603;28.846;171.093;-526.404
20.683.594;-248.321;62.118;32.814;164.377;-503.205
20.703.125;-203.144;57.845;23.657;146.368;-482.143
20.722.656;-128.358;36.477;-0.3510;114.011;-494.048
20.742.188;-44.719;10.836;-41.361;76.160;-536.172
20.761.719;0.8700;-0.4731;-70.055;49.298;-585.928
20.781.250;18.162;-19.689;-85.317;34.035;-653.694
20.800.781;0.0458;-35.867;-91.117;26.404;-728.480
20.820.313;-0.8700;-45.635;-87.759;29.762;-739.774
20.839.844;0.8089;-51.129;-86.233;35.256;-688.187
20.859.375;22.741;-44.414;-90.507;34.035;-634.463
20.878.906;0.5037;-23.657;-86.233;35.867;-576.160
20.898.438;-38.614;-0.6258;-68.223;50.519;-512.363
20.917.969;-87.149;0.0458;-43.498;75.244;-487.332
20.937.500;-125.000;-0.1984;-22.436;103.632;-501.679
20.957.031;-153.694;-14.499;-0.9615;131.716;-495.879
20.976.563;-178.114;-30.067;-0.0153;158.272;-433.303
20.996.094;-200.397;-43.498;0.7784;175.977;-340.507
21.015.625;-223.901;-55.098;12.668;177.503;-262.973
21.035.156;-229.396;-60.897;0.9921;160.409;-222.680
21.054.688;-201.618;-56.319;-0.1679;129.579;-225.427
21.074.219;-162.546;-46.551;-16.026;96.612;-264.805
21.093.750;-142.705;-34.646;-24.267;67.613;-319.750
21.113.281;-149.725;-19.689;-29.151;37.698;-363.095
21.132.813;-178.419;-0.5647;-32.814;10.531;-386.905
21.152.344;-205.586;-0.3205;-30.678;-0.2289;-409.799
21.171.875;-213.523;-0.8089;-20.910;0.0153;-429.640
21.191.406;-220.543;-0.1679;-0.3510;13.584;-420.177
21.210.938;-232.143;0.9921;10.531;27.320;-389.652
21.230.469;-230.617;13.584;14.499;36.477;-364.622
21.250.000;-217.186;15.720;17.552;47.772;-348.443
21.269.531;-204.365;21.215;23.352;61.508;-349.359
21.289.063;-201.313;24.267;26.404;74.328;-362.179
21.308.594;-208.333;22.436;26.709;90.201;-373.779
21.328.125;-204.365;15.720;16.636;105.464;-404.915
21.347.656;-182.387;11.752;-0.5647;114.316;-449.176
21.367.188;-161.630;23.962;-23.352;123.779;-458.028
21.386.719;-148.810;46.856;-26.709;136.905;-428.724
21.406.250;-129.884;52.961;-29.151;145.757;-393.926
21.425.781;-95.391;25.794;-42.277;147.283;-367.063
21.445.313;-63.950;-11.447;-57.540;140.873;-352.106
21.464.844;-54.487;-26.404;-62.424;121.032;-356.990
21.484.375;-57.234;-12.973;-59.371;88.065;-379.884
21.503.906;-60.592;0.4731;-58.150;53.877;-397.589
21.523.438;-71.581;0.7173;-55.708;30.372;-380.189
21.542.969;-102.411;0.2595;-45.024;18.162;-333.791
21.562.500;-144.536;0.5952;-30.372;0.6563;-316.697
21.582.031;-168.040;0.8394;-25.488;-0.9005;-354.853
21.601.563;-159.188;-0.3816;-36.783;-22.131;-408.272
21.621.094;-143.010;-28.236;-53.266;-24.573;-432.082
21.640.625;-146.062;-45.940;-60.592;-17.552;-425.061
21.660.156;-169.261;-45.330;-55.098;-0.5037;-416.819
21.679.688;-197.650;-39.225;-45.330;11.142;-410.714
21.699.219;-209.249;-46.551;-45.024;25.794;-391.789
21.718.750;-189.713;-68.223;-55.708;34.035;-355.769
21.738.281;-153.083;-77.686;-61.203;36.172;-298.077
21.757.813;-134.463;-54.487;-53.877;30.372;-232.448
21.777.344;-146.062;-15.110;-41.667;13.278;-197.955
21.796.875;-159.799;16.941;-35.562;-13.584;-211.081
21.816.406;-151.557;33.120;-38.614;-37.393;-246.184
21.835.938;-125.611;27.015;-49.908;-51.435;-291.972
21.855.469;-96.306;0.7784;-66.392;-64.866;-347.222
21.875.000;-90.812;0.0458;-69.139;-73.413;-368.590
21.894.531;-133.852;15.415;-45.330;-65.476;-334.096
21.914.063;-191.545;31.899;-11.447;-48.687;-289.835
21.933.594;-206.807;25.488;0.9310;-37.088;-295.330
21.953.125;-181.777;0.5037;13.584;-35.256;-354.853
21.972.656;-149.115;-18.468;0.1068;-40.751;-426.893
21.992.188;-121.032;-49.603;-23.962;-48.382;-483.364
22.011.719;-120.421;-67.613;-41.667;-50.214;-504.426
22.031.250;-151.862;-61.508;-40.446;-43.498;-489.774
22.050.781;-177.503;-48.077;-35.562;-34.646;-479.701
22.070.313;-190.629;-36.172;-36.783;-32.204;-510.531
22.089.844;-209.554;-23.657;-38.004;-38.004;-561.508
22.109.375;-235.501;-0.5952;-32.204;-41.361;-575.855
22.128.906;-263.889;21.215;-16.636;-33.425;-546.856
22.148.438;-281.288;42.888;0.2289;-17.247;-513.889
22.167.969;-281.288;35.562;12.973;-0.1984;-499.542
22.187.500;-269.689;13.278;10.226;0.6258;-507.479
22.207.031;-237.637;0.0458;-0.6258;0.3205;-540.751
22.226.563;-193.071;-14.499;-36.172;-0.7479;-570.360
22.246.094;-161.325;-39.225;-62.424;-13.889;-551.435
22.265.625;-146.673;-49.603;-71.581;-0.9615;-492.521
22.285.156;-126.221;-52.350;-76.465;-0.3510;-435.440
22.304.688;-63.950;-72.192;-96.001;-0.6563;-408.272
22.324.219;11.752;-90.201;-117.674;-13.584;-403.388
22.343.750;23.657;-89.896;-120.421;-12.668;-393.926
22.363.281;-0.7479;-100.885;-114.316;-13.584;-386.905
22.382.813;-11.447;-127.137;-115.842;-23.657;-400.031
22.402.344;-13.584;-132.937;-110.043;-27.930;-403.388
22.421.875;-67.308;-101.496;-81.960;-12.973;-368.284
22.441.406;-147.894;-57.540;-47.772;11.142;-331.349
22.460.938;-204.976;-15.415;-28.541;28.236;-327.076
22.480.469;-226.648;35.256;-21.825;34.341;-340.812
22.500.000;-237.637;79.212;-18.162;33.730;-360.348
22.519.531;-242.521;91.728;-16.636;27.015;-389.042
22.539.063;-229.701;85.012;-18.468;18.468;-408.272
22.558.594;-198.260;64.255;-27.015;0.6563;-422.619
22.578.125;-143.620;37.088;-47.161;-22.131;-486.416
22.597.656;-87.149;47.161;-67.918;-64.255;-595.085
22.617.188;-70.055;83.181;-74.328;-87.759;-667.430
22.636.719;-94.170;95.391;-70.055;-76.465;-667.430
22.656.250;-132.326;92.643;-56.929;-43.803;-615.842
22.675.781;-169.261;90.812;-38.614;-0.6563;-537.088
22.695.313;-185.134;77.686;-33.425;22.131;-472.070
22.714.844;-172.619;68.529;-45.024;38.919;-436.355
22.734.375;-169.567;80.739;-51.129;56.013;-392.094
22.753.906;-191.850;101.190;-45.940;77.686;-336.538
22.773.438;-222.375;114.927;-42.888;92.338;-320.971
22.792.969;-257.479;117.369;-41.361;98.138;-339.286
22.812.500;-282.814;106.990;-31.288;101.801;-334.707
22.832.031;-270.910;74.939;-24.267;103.022;-300.824
22.851.563;-224.512;19.994;-29.457;99.664;-258.089
22.871.094;-170.482;-31.593;-39.835;90.201;-229.701
22.890.625;-124.389;-58.761;-51.435;71.581;-228.785
22.910.156;-87.759;-76.770;-66.087;46.856;-242.216
22.929.688;-70.055;-98.748;-80.128;24.573;-264.499
22.949.219;-70.360;-119.200;-91.117;0.9005;-311.813
22.968.750;-75.549;-138.126;-103.327;-0.2900;-385.378
22.988.281;-90.201;-139.347;-114.621;-14.194;-447.039
23.007.813;-103.022;-112.790;-123.474;-26.099;-472.070
23.027.344;-102.106;-68.529;-128.968;-38.309;-468.712
23.046.875;-109.737;-12.668;-123.168;-44.414;-442.155
23.066.406;-139.042;48.382;-102.411;-38.919;-393.620
23.085.938;-180.250;108.822;-72.802;-23.962;-337.149
23.105.469;-215.965;152.167;-48.077;-12.363;-306.013
23.125.000;-221.154;163.156;-37.393;-13.889;-313.645
23.144.531;-207.418;160.409;-27.320;-16.331;-321.581
23.164.063;-221.459;171.398;-0.3205;0.0153;-294.719
23.183.594;-264.194;185.440;29.151;36.783;-236.111
23.203.125;-293.498;173.230;53.571;76.160;-168.956
23.222.656;-294.719;130.800;62.729;101.190;-122.253
23.242.188;-283.120;91.728;64.255;106.685;-95.696
23.261.719;-263.584;72.192;61.203;95.085;-84.707
23.281.250;-232.448;48.687;51.740;75.855;-98.443
23.300.781;-203.449;0.5952;34.951;58.150;-133.242
23.320.313;-189.713;-41.972;0.7784;39.835;-186.966
23.339.844;-188.492;-51.435;-12.973;25.183;-218.101
23.359.375;-215.965;-0.8089;-0.8700;24.878;-182.082
23.378.906;-259.005;35.256;0.3205;30.372;-134.768
23.398.438;-258.394;44.414;-0.3205;23.657;-142.094
23.417.969;-219.933;46.245;-25.183;0.6868;-179.640
23.437.500;-195.818;62.424;-45.635;-11.752;-217.186
23.457.031;-178.114;78.907;-65.171;-32.814;-268.162
23.476.563;-156.746;87.149;-85.012;-52.656;-329.518
23.496.094;-154.915;91.422;-99.054;-65.781;-375.305
23.515.625;-167.430;70.971;-111.264;-75.549;-412.546
23.535.156;-179.945;29.457;-121.337;-81.654;-438.187
23.554.688;-209.860;16.026;-115.537;-72.802;-408.883
23.574.219;-248.932;30.678;-99.664;-55.098;-343.254
23.593.750;-272.741;47.772;-85.012;-39.530;-291.056
23.613.281;-281.899;57.234;-71.581;-21.215;-249.542
23.632.813;-280.678;44.414;-62.424;-0.4121;-223.596
23.652.344;-278.846;24.878;-54.792;0.5647;-224.206
23.671.875;-280.067;19.383;-47.466;12.363;-234.585
23.691.406;-270.604;18.773;-46.245;20.910;-235.501
23.710.938;-261.447;30.372;-44.414;33.425;-199.481
23.730.469;-274.573;68.834;-33.120;43.193;-120.116
23.750.000;-302.045;117.369;-20.604;40.446;-47.772
23.769.531;-318.834;143.315;-17.247;28.541;-13.889
23.789.063;-297.161;124.389;-26.404;13.278;-0.8700
23.808.594;-235.806;77.076;-47.466;-0.5952;-39.225
23.828.125;-187.882;49.298;-63.950;-24.267;-100.275
23.847.656;-197.650;52.961;-66.087;-35.562;-160.714
23.867.188;-248.932;69.139;-60.287;-41.056;-204.976
23.886.719;-308.761;87.759;-50.824;-37.088;-228.175
23.906.250;-354.548;93.864;-38.004;-21.215;-240.690
23.925.781;-370.727;78.297;-32.509;-0.4731;-264.194
23.945.313;-351.801;34.951;-49.603;-0.0458;-284.951
23.964.844;-307.845;-16.026;-80.739;-0.1984;-273.352
23.984.375;-269.994;-31.899;-95.391;0.8700;-227.564
24.003.906;-244.658;-30.067;-91.117;31.288;-191.545
24.023.438;-219.933;-37.393;-85.012;51.740;-193.071
24.042.969;-202.228;-42.582;-77.991;64.255;-200.092
24.062.500;-194.902;-41.972;-71.276;69.750;-194.292
24.082.031;-201.923;-30.067;-62.424;74.634;-164.683
24.101.563;-219.322;-0.5647;-50.824;84.096;-113.706
24.121.094;-232.448;13.278;-45.024;90.201;-77.991
24.140.625;-242.216;23.046;-49.603;80.739;-74.023
24.160.156;-254.121;42.277;-63.339;48.077;-96.917
24.179.688;-270.604;69.750;-80.739;0.5647;-123.779
24.199.219;-277.625;70.360;-96.612;-19.383;-117.063
24.218.750;-265.415;45.024;-105.159;-20.910;-63.339
24.238.281;-258.394;30.983;-98.748;-0.8089;11.752
24.257.813;-270.604;35.867;-81.960;0.7784;63.034
24.277.344;-285.867;39.835;-67.308;20.910;80.128
24.296.875;-286.172;25.488;-59.371;30.067;79.518
24.316.406;-264.805;0.2595;-58.455;33.120;45.024
24.335.938;-243.132;0.2900;-56.624;30.678;-0.5037
24.355.469;-253.510;38.309;-39.835;28.541;-0.9921
24.375.000;-279.762;67.918;-18.162;24.878;11.752
24.394.531;-271.825;55.098;-23.046;0.4426;-23.046
24.414.063;-257.784;35.256;-44.414;-24.267;-87.454
24.433.594;-299.603;49.603;-42.277;-29.762;-81.654
24.453.125;-372.558;71.886;-18.162;-0.9615;-22.741
24.472.656;-416.514;75.855;-0.1374;10.836;28.846
24.492.188;-423.840;74.328;0.2595;26.404;70.055
24.511.719;-428.114;76.465;0.8394;45.635;98.748
24.531.250;-436.050;75.244;18.773;65.781;114.316
24.550.781;-422.924;57.234;24.267;78.907;129.274
24.570.313;-397.283;29.762;23.046;86.538;149.725
24.589.844;-377.747;0.1374;15.720;86.844;172.009
24.609.375;-346.001;-41.667;-0.3816;74.023;173.230
24.628.906;-304.182;-84.096;-24.267;56.929;157.357
24.648.438;-286.783;-92.033;-25.488;49.908;150.946
24.667.969;-297.466;-64.255;-0.9005;47.161;148.199
24.687.500;-306.624;-17.552;12.363;35.562;134.463
24.707.031;-294.414;20.910;28.846;20.604;110.348
24.726.563;-273.657;38.614;33.425;16.636;86.233
24.746.094;-268.468;46.551;27.320;23.657;91.117
24.765.625;-270.604;49.908;13.584;27.015;127.747
24.785.156;-266.331;58.150;-0.1374;21.520;164.683
24.804.688;-273.046;76.770;-0.8394;20.604;192.460
24.824.219;-304.182;87.149;-0.3510;33.425;221.154
24.843.750;-336.233;83.181;0.9310;50.214;249.237
24.863.281;-344.475;77.686;21.825;56.624;261.447
24.882.813;-333.791;77.991;26.404;48.077;250.153
24.902.344;-318.223;83.181;19.689;35.256;219.322
24.921.875;-302.961;81.349;0.3510;25.794;166.819
24.941.406;-290.140;61.508;-14.805;20.299;92.643
24.960.938;-291.667;45.635;-17.552;23.962;28.541
24.980.469;-309.676;59.371;0.4731;42.582;19.078
25.000.000;-312.424;80.128;32.509;68.223;52.961
25.019.531;-271.825;77.381;40.140;83.791;76.465
25.039.063;-213.217;49.603;24.878;83.791;55.708
25.058.594;-182.998;20.604;0.4426;76.465;0.7784
25.078.125;-185.440;0.9310;-0.7173;70.665;-21.825
25.097.656;-182.998;-0.1374;-19.689;63.950;-31.899
25.117.188;-156.746;-17.552;-40.446;52.961;-51.740
25.136.719;-143.926;-11.142;-53.571;43.803;-70.971
25.156.250;-175.977;16.636;-44.719;45.024;-68.223
25.175.781;-227.259;45.330;-19.383;58.150;-44.109
25.195.313;-262.363;77.076;11.447;76.770;-0.5647
25.214.844;-271.215;112.790;37.088;89.591;26.709
25.234.375;-261.142;140.263;50.214;92.949;32.814
25.253.906;-244.048;143.620;49.298;89.591;0.6258
25.273.438;-217.796;123.168;35.562;80.128;-50.824
25.292.969;-194.292;104.548;21.520;69.750;-108.211
25.312.500;-189.408;87.759;19.689;66.392;-129.884
25.332.031;-186.661;59.676;26.404;71.581;-122.558
25.351.563;-176.282;38.309;35.867;85.012;-99.054
25.371.094;-158.883;34.035;47.161;107.906;-52.961
25.390.625;-139.042;37.393;58.761;133.852;0.6563
25.410.156;-142.705;43.193;68.529;155.830;60.897
25.429.688;-172.924;46.245;72.192;170.482;91.422
25.449.219;-200.702;41.667;63.034;173.230;83.791
25.468.750;-229.090;46.245;53.877;172.009;59.676
25.488.281;-270.910;62.118;57.234;172.619;50.824
25.507.813;-300.214;69.139;59.066;165.904;49.603
25.527.344;-313.950;78.907;56.624;149.115;51.435
25.546.875;-334.707;99.054;59.982;128.053;66.392
25.566.406;-353.632;114.011;69.139;106.380;99.054
25.585.938;-346.306;121.947;81.044;90.507;136.294
25.605.469;-317.613;130.495;94.780;83.791;159.799
25.625.000;-292.888;131.410;106.990;86.233;167.125
25.644.531;-280.067;121.032;115.537;97.222;170.177
25.664.063;-273.962;119.505;123.168;114.927;178.724
25.683.594;-272.436;133.547;128.358;128.053;190.018
25.703.125;-271.215;149.420;126.832;124.389;199.176
25.722.656;-261.447;161.630;117.369;103.327;207.112
25.742.188;-250.153;169.872;107.295;76.770;232.753
25.761.719;-254.121;174.145;101.496;55.403;270.604
25.781.250;-267.247;175.061;95.696;37.698;279.151
25.800.781;-276.099;160.409;81.654;20.604;261.752
25.820.313;-274.878;110.043;56.929;0.5647;250.153
25.839.844;-262.668;48.077;29.151;-0.7173;235.501
25.859.375;-246.795;19.078;13.584;-17.552;212.302
25.878.906;-226.038;16.026;11.447;-21.825;203.144
25.898.438;-191.545;0.8089;12.363;-17.247;218.101
25.917.969;-149.420;-0.2595;14.499;-0.6563;233.669
25.937.500;-97.222;-0.3205;17.552;0.1984;223.901
25.957.031;-45.024;-0.3510;14.805;0.5037;186.661
25.976.563;-31.593;-18.162;0.8089;0.6868;143.315
25.996.094;-80.739;-38.919;0.7784;0.9921;119.200
26.015.625;-185.745;-37.088;19.383;14.194;111.874
26.035.156;-307.845;-0.6563;40.140;17.552;105.464
26.054.688;-383.242;30.067;61.813;18.468;106.685
26.074.219;-396.673;56.013;81.044;18.773;119.200
26.093.750;-393.315;65.476;93.864;19.689;125.305
26.113.281;-402.473;59.982;96.917;18.468;120.421
26.132.813;-424.451;52.350;93.864;18.162;114.927
26.152.344;-453.144;53.877;91.117;23.657;112.179
26.171.875;-475.733;57.845;86.844;29.151;103.632
26.191.406;-476.343;52.656;74.939;27.015;88.675
26.210.938;-449.786;37.393;56.319;15.720;79.823
26.230.469;-414.072;25.794;37.088;-0.0153;67.613
26.250.000;-387.821;26.709;23.046;-16.941;31.593
26.269.531;-374.695;30.983;14.805;-31.593;-13.278
26.289.063;-366.758;34.341;12.057;-41.361;-28.236
26.308.594;-369.200;43.498;16.026;-45.330;-0.3205
26.328.125;-396.673;59.066;24.573;-45.024;25.488
26.347.656;-439.103;74.634;33.730;-42.277;36.477
26.367.188;-473.901;85.928;40.751;-38.309;34.646
26.386.719;-491.606;90.812;45.330;-33.730;23.046
26.406.250;-480.006;81.654;45.635;-32.509;0.2289
26.425.781;-417.735;53.877;38.004;-38.614;-30.372
26.445.313;-323.413;16.636;25.183;-50.519;-61.203
26.464.844;-251.984;-12.057;15.110;-64.560;-71.886
26.484.375;-227.259;-26.404;0.8700;-78.907;-80.128
26.503.906;-240.690;-32.509;0.1984;-92.338;-99.969
26.523.438;-276.099;-35.256;-0.2900;-97.222;-115.232
26.542.969;-324.328;-28.236;0.0153;-89.896;-121.337
26.562.500;-379.579;-0.7784;0.8394;-79.518;-138.736
26.582.031;-421.093;17.552;12.973;-78.297;-174.145
26.601.563;-443.681;44.719;0.9615;-87.454;-208.333
26.621.094;-454.670;71.886;0.2289;-98.443;-226.954
26.640.625;-450.397;90.507;-0.7173;-105.159;-245.269
26.660.156;-434.219;92.949;-16.941;-106.990;-264.194
26.679.688;-429.640;86.844;-17.247;-105.159;-263.584
26.699.219;-438.187;79.518;-0.9615;-103.938;-242.827
26.718.750;-428.114;63.645;-0.5037;-104.853;-213.217
26.738.281;-386.905;37.698;-0.8089;-104.548;-185.745
26.757.813;-343.864;17.857;-10.531;-98.138;-160.104
26.777.344;-322.497;16.941;-0.2900;-81.044;-131.410
26.796.875;-319.444;25.488;11.447;-59.066;-121.947
26.816.406;-323.107;33.425;23.962;-38.004;-135.989
26.835.938;-322.497;41.972;31.288;-19.078;-149.420
26.855.469;-317.613;52.961;34.951;-0.2900;-154.915
26.875.000;-307.845;63.339;34.035;0.9615;-155.830
26.894.531;-292.582;69.750;28.541;17.247;-149.725
26.914.063;-283.425;73.107;23.046;22.131;-130.800
26.933.594;-285.256;74.939;21.825;27.015;-100.580
26.953.125;-287.088;74.023;23.352;32.204;-84.707
26.972.656;-285.562;70.971;25.794;37.698;-113.706
26.992.188;-282.204;67.002;28.846;43.803;-153.388
27.011.719;-271.520;60.592;28.541;51.129;-155.830
27.031.250;-260.531;56.624;26.099;60.287;-140.263
27.050.781;-273.352;62.118;29.762;71.276;-126.526
27.070.313;-308.150;70.971;38.919;78.602;-95.391
27.089.844;-338.980;74.939;43.193;73.718;-27.930
27.109.375;-355.464;75.244;41.667;56.624;72.497
27.128.906;-360.958;72.192;37.698;36.172;184.219
27.148.438;-361.264;65.781;32.814;18.468;276.404
27.167.969;-360.958;57.845;27.015;0.5647;338.370
27.187.500;-361.569;52.656;22.131;-0.1984;392.705
27.207.031;-364.011;51.435;19.383;-0.9310;447.039
27.226.563;-364.011;48.993;14.805;-23.046;489.774
27.246.094;-349.054;41.972;0.4426;-42.582;512.668
27.265.625;-317.002;28.846;-12.057;-61.813;505.647
27.285.156;-289.225;23.962;-27.320;-75.244;468.712
27.304.688;-283.425;39.530;-32.204;-77.686;414.072
27.324.219;-296.245;58.761;-28.846;-68.223;353.022
27.343.750;-314.255;64.255;-24.267;-56.013;302.045
27.363.281;-320.971;53.877;-24.573;-50.214;275.183
27.382.813;-314.866;35.256;-26.404;-49.603;285.256
27.402.344;-307.540;21.215;-23.352;-46.856;339.591
27.421.875;-308.761;19.078;-14.805;-41.361;418.651
27.441.406;-322.802;31.288;-0.0763;-35.867;488.858
27.460.938;-331.960;49.908;16.026;-29.457;519.383
27.480.469;-326.160;61.508;34.646;-15.110;500.763
27.500.000;-322.192;64.866;55.403;10.226;460.165
27.519.531;-322.192;64.866;75.244;37.393;418.346
27.539.063;-311.813;63.034;86.538;52.961;363.400
27.558.594;-286.783;58.455;85.928;47.772;295.330
27.578.125;-258.700;53.266;77.076;25.794;235.806
27.597.656;-249.237;52.350;63.339;-0.3205;204.670
27.617.188;-267.247;53.877;45.330;-36.172;227.259
27.636.719;-302.656;52.350;23.352;-69.750;301.740
27.656.250;-345.696;50.214;0.2289;-97.222;400.031
27.675.781;-392.094;52.350;-11.752;-112.179;493.132
27.695.313;-432.387;57.540;-18.773;-114.927;538.309
27.714.844;-458.944;61.203;-22.131;-111.264;511.752
27.734.375;-470.543;63.950;-22.131;-104.548;442.460
27.753.906;-473.901;60.897;-20.604;-96.612;360.653
27.773.438;-475.427;49.908;-19.689;-85.623;265.110
27.792.969;-477.869;41.361;-16.636;-67.308;156.441
27.812.500;-481.838;38.614;-0.9615;-39.835;51.129
27.832.031;-488.553;36.172;-0.2595;-10.226;-55.403
27.851.563;-499.237;30.983;0.1679;12.973;-167.735
27.871.094;-513.584;24.878;0.3205;26.404;-244.658
27.890.625;-528.846;17.857;0.3510;31.899;-248.932
27.910.156;-545.330;11.447;0.2595;31.593;-198.565
27.929.688;-564.866;0.5952;0.2595;29.457;-133.242
27.949.219;-586.844;0.2595;0.6563;31.899;-75.244
27.968.750;-610.348;0.1984;16.026;40.751;-27.015
27.988.281;-631.716;0.2900;28.236;51.740;0.0458
28.007.813;-639.652;0.2900;40.140;56.929;13.278
28.027.344;-618.895;-0.1068;50.214;55.098;44.414
28.046.875;-584.402;-10.226;57.234;50.214;106.990
28.066.406;-576.465;-21.215;59.982;44.414;179.640
28.085.938;-602.106;-31.899;58.761;37.088;230.311
28.105.469;-636.905;-42.277;55.403;29.762;253.816
28.125.000;-662.546;-55.403;51.740;24.878;283.425
28.144.531;-679.335;-68.223;47.161;22.741;339.896
28.164.063;-691.239;-75.549;41.972;21.520;411.325
28.183.594;-697.039;-74.328;37.088;18.162;470.849
28.203.125;-706.502;-68.529;32.204;0.9615;498.321
28.222.656;-729.090;-63.339;27.320;-0.4121;477.259
28.242.188;-756.258;-61.508;22.436;-20.299;418.956
28.261.719;-775.794;-60.897;20.299;-31.288;366.148
28.281.250;-771.520;-58.150;19.689;-33.730;342.338
28.300.781;-731.532;-55.708;19.078;-30.983;329.823
28.320.313;-686.355;-56.624;18.162;-29.762;290.751
28.339.844;-670.177;-59.371;17.552;-31.899;217.186
28.359.375;-679.945;-59.982;18.162;-34.035;143.620
28.378.906;-701.923;-57.234;21.520;-32.814;66.087
28.398.438;-729.090;-53.266;26.404;-30.067;-0.8700
28.417.969;-757.173;-48.077;32.204;-26.709;-0.9005
28.437.500;-782.509;-41.056;38.919;-20.910;57.540
28.457.031;-798.687;-34.951;45.330;-12.668;109.737
28.476.563;-804.487;-31.593;49.603;-0.4731;158.578
28.496.094;-801.740;-28.236;53.877;0.3205;255.037
28.515.625;-789.225;-21.825;59.982;14.805;376.832
28.535.156;-762.668;-12.057;67.308;30.372;484.890
28.554.688;-729.701;0.0153;76.160;45.940;575.549
28.574.219;-705.891;12.363;86.233;58.761;647.894
28.593.750;-696.123;24.878;95.696;67.918;687.271
28.613.281;-699.481;37.088;104.853;75.549;687.882
28.632.813;-708.944;48.077;113.095;80.739;662.851
28.652.344;-713.828;56.013;119.505;81.349;620.727
28.671.875;-707.723;62.424;122.863;78.602;572.802
28.691.406;-692.766;69.750;125.611;77.381;535.562
28.710.938;-675.061;80.433;128.053;78.907;499.237
28.730.469;-656.746;90.507;130.189;81.960;450.397
28.750.000;-628.053;94.475;128.358;83.486;386.294
28.769.531;-569.750;87.454;120.726;81.044;308.761
28.789.063;-483.669;73.413;111.264;79.212;259.310
28.808.594;-408.578;61.203;105.769;84.096;271.215
28.828.125;-360.958;51.740;105.159;95.696;320.665
28.847.656;-322.192;40.446;107.601;108.516;382.326
28.867.188;-298.382;30.678;111.569;115.537;454.365
28.886.719;-301.740;29.457;117.979;113.400;533.425
28.906.250;-324.023;39.530;126.526;106.990;604.548
28.925.781;-356.380;57.845;137.821;101.496;651.252
28.945.313;-388.736;78.297;150.031;96.917;674.756
28.964.844;-407.967;96.001;160.409;91.117;688.492
28.984.375;-405.525;108.822;168.956;89.286;676.282
29.003.906;-382.326;118.590;176.282;96.001;607.906
29.023.438;-346.612;127.137;181.166;107.906;512.973
29.042.969;-309.371;132.326;180.861;113.706;441.239
29.062.500;-283.730;132.326;173.230;105.159;386.905
29.082.031;-272.741;128.358;161.020;85.928;333.486
29.101.563;-263.889;119.200;146.368;64.255;290.751
29.121.094;-247.405;106.685;130.800;45.940;269.994
29.140.625;-221.764;96.001;115.537;28.846;269.383
29.160.156;-189.408;90.812;101.190;11.447;281.288
29.179.688;-172.314;93.559;90.812;-0.4731;311.203
29.199.219;-187.576;103.022;85.928;-15.415;364.316
29.218.750;-218.712;115.232;87.149;-17.552;421.398
29.238.281;-246.795;127.137;93.864;-11.752;454.060
29.257.813;-266.636;138.431;104.853;0.0763;451.313
29.277.344;-277.320;147.894;117.063;16.636;423.535
29.296.875;-278.541;155.525;128.663;31.288;380.800
29.316.406;-273.046;161.325;138.126;41.667;331.349
29.335.938;-262.668;164.988;144.536;48.687;291.361
29.355.469;-248.321;166.514;148.504;53.877;268.773
29.375.000;-229.396;167.735;151.862;60.287;262.057
29.394.531;-206.807;169.261;155.525;66.697;275.183
29.414.063;-182.998;169.261;157.662;69.444;305.403
29.433.594;-162.546;166.209;157.357;68.223;329.823
29.453.125;-145.452;159.493;153.388;62.118;327.991
29.472.656;-130.189;151.557;146.978;53.571;311.813
29.492.188;-117.063;144.536;140.263;47.466;290.751
29.511.719;-107.295;139.347;134.768;46.856;255.342
29.531.250;-101.190;135.989;132.326;52.656;222.375
29.550.781;-92.338;133.242;131.716;61.813;223.596
29.570.313;-69.750;129.884;130.495;68.834;253.205
29.589.844;-45.635;126.221;128.968;72.802;281.899
29.609.375;-42.582;124.084;128.053;76.465;288.309
29.628.906;-59.066;124.695;128.053;79.518;264.194
29.648.438;-81.044;126.526;127.137;79.823;240.995
29.667.969;-99.664;128.053;124.084;78.297;257.784
29.687.500;-114.011;129.274;119.811;78.297;305.098
29.707.031;-123.779;129.579;115.842;81.654;354.243
29.726.563;-130.189;128.053;110.958;85.012;389.042
29.746.094;-135.379;126.221;103.938;83.791;401.252
29.765.625;-139.347;124.084;96.306;76.770;400.031
29.785.156;-141.789;122.253;89.896;67.308;396.062
29.804.688;-143.010;120.116;84.402;57.845;386.600
29.824.219;-140.568;117.674;80.128;49.908;365.537
29.843.750;-133.547;114.011;76.465;44.414;339.286
29.863.281;-123.474;107.906;73.413;41.361;328.907
29.882.813;-111.264;100.580;69.750;41.361;345.391
29.902.344;-99.664;92.338;65.476;44.414;370.421
29.921.875;-91.422;84.402;60.592;48.687;385.684
29.941.406;-87.759;78.297;55.403;51.129;385.073
29.960.938;-86.233;74.023;50.519;50.519;377.442
29.980.469;-86.538;70.971;46.856;48.993;389.042
30.000.000;-61.508;0.6258;-26.404;-14.194;-523.046
30.019.531;-109.432;30.067;-0.8089;19.994;-493.437
30.039.063;-189.713;61.813;11.447;58.455;-412.546
30.058.594;-281.288;94.475;30.372;94.475;-309.982
30.078.125;-369.200;124.389;49.298;127.137;-213.828
30.097.656;-444.902;151.252;67.308;158.578;-139.042
30.117.188;-506.868;175.672;84.096;188.797;-80.433
30.136.719;-556.929;196.123;98.138;215.354;-33.120
30.156.250;-594.475;211.691;111.569;241.300;-0.7173
30.175.781;-618.895;223.596;126.221;271.825;-10.226
30.195.313;-630.800;231.838;137.515;298.077;-43.193
30.214.844;-632.021;233.059;138.736;301.740;-90.201
30.234.375;-625.000;225.733;128.053;276.709;-118.895
30.253.906;-614.316;213.217;109.737;230.922;-121.032
30.273.438;-602.717;199.786;89.591;179.029;-116.453
30.292.969;-592.033;189.103;72.497;133.242;-124.695
30.312.500;-583.181;181.471;59.676;99.969;-156.136
30.332.031;-576.465;177.503;49.603;76.770;-202.839
30.351.563;-573.413;175.061;41.667;60.287;-244.658
30.371.094;-573.718;171.703;34.341;49.298;-269.078
30.390.625;-575.855;167.735;26.709;45.024;-277.015
30.410.156;-577.076;163.156;19.689;45.940;-274.573
30.429.688;-575.855;157.967;14.194;50.824;-265.110
30.449.219;-571.886;152.473;0.9921;59.066;-251.374
30.468.750;-565.476;147.283;0.8089;70.360;-229.701
30.488.281;-558.455;143.010;0.8700;81.960;-197.650
30.507.813;-554.487;139.957;11.752;92.033;-161.325
30.527.344;-554.487;137.821;17.857;102.717;-123.168
30.546.875;-556.013;138.431;27.320;114.927;-88.065
30.566.406;-553.571;143.620;39.835;126.832;-66.697
30.585.938;-543.803;153.388;54.792;137.210;-59.066
30.605.469;-530.372;163.462;67.613;142.399;-55.403
30.625.000;-523.962;169.567;74.023;137.515;-46.856
30.644.531;-532.204;169.261;74.328;125.611;-37.393
30.664.063;-554.182;163.767;71.581;114.011;-41.056
30.683.594;-581.044;155.525;67.308;102.106;-69.750
30.703.125;-602.106;149.115;61.508;86.233;-119.811
30.722.656;-611.874;145.147;52.656;63.645;-168.956
30.742.188;-614.927;143.010;41.667;38.004;-203.449
30.761.719;-618.284;140.873;32.204;16.636;-228.175
30.781.250;-623.168;138.126;26.404;0.7173;-237.027
30.800.781;-623.779;135.989;27.320;12.668;-222.375
30.820.313;-616.453;136.600;33.730;29.762;-201.923
30.839.844;-604.853;139.347;41.972;50.824;-197.650
30.859.375;-589.591;140.263;50.214;71.276;-197.039
30.878.906;-563.645;136.600;57.540;88.065;-175.366
30.898.438;-510.531;126.832;61.508;101.496;-145.147
30.917.969;-435.440;114.927;63.034;113.095;-128.358
30.937.500;-383.242;110.348;66.697;126.526;-113.095
30.957.031;-382.326;116.758;75.549;145.452;-73.413
30.976.563;-418.956;130.800;87.759;167.430;-0.5647
30.996.094;-464.438;143.315;98.138;184.524;65.476
31.015.625;-497.100;150.031;104.853;189.713;120.726
31.035.156;-510.531;151.862;109.432;185.745;159.799
31.054.688;-517.857;152.473;113.095;179.945;179.945
31.074.219;-531.288;155.525;115.842;175.977;182.082
31.093.750;-548.077;161.020;116.148;172.619;175.366
31.113.281;-554.792;164.683;112.790;165.293;159.493
31.132.813;-538.919;163.156;103.327;149.115;141.484
31.152.344;-505.342;155.830;88.065;125.305;134.158
31.171.875;-471.154;147.283;72.192;103.938;137.515
31.191.406;-422.924;139.957;60.287;92.949;126.526
31.210.938;-344.780;131.716;53.266;95.391;77.381
31.230.469;-263.278;116.758;49.298;109.432;22.436
31.250.000;-191.239;90.507;45.330;127.442;-14.805
31.269.531;-114.621;51.435;39.225;143.620;-40.140
31.289.063;-56.929;12.057;32.814;156.746;-31.899
31.308.594;-63.034;-0.5037;31.593;166.514;0.9005
31.328.125;-146.978;0.6258;36.172;169.872;47.466
31.347.656;-282.509;35.562;43.498;163.462;74.634
31.367.188;-427.503;68.223;49.603;148.504;95.391
31.386.719;-550.214;96.306;53.571;130.495;97.222
31.406.250;-639.347;118.895;57.540;116.453;74.939
31.425.781;-701.313;139.347;62.424;107.906;41.972
31.445.313;-743.742;156.441;64.255;97.222;-0.3205
31.464.844;-766.636;169.567;62.118;81.960;-67.002
31.484.375;-766.026;177.198;58.455;68.834;-121.032
31.503.906;-740.995;178.419;54.792;62.729;-150.336
31.523.438;-697.344;172.619;51.129;61.203;-176.587
31.542.969;-643.926;160.714;46.551;60.897;-194.597
31.562.500;-588.370;145.147;42.888;65.171;-185.134
31.582.031;-534.951;128.968;40.140;75.549;-160.714
31.601.563;-491.300;112.485;34.951;81.349;-140.568
31.621.094;-464.133;96.917;25.488;74.939;-125.611
31.640.625;-453.755;85.012;14.499;59.982;-103.327
31.660.156;-454.060;77.991;0.6563;43.803;-73.718
31.679.688;-457.112;75.244;0.3205;32.509;-48.993
31.699.219;-458.333;75.244;0.4426;26.709;-25.794
31.718.750;-455.281;75.549;0.7784;26.709;-0.5037
31.738.281;-446.429;73.413;12.057;31.593;0.5647
31.757.813;-432.387;67.918;16.636;36.783;0.9005
31.777.344;-416.514;59.982;19.078;35.562;13.278
31.796.875;-403.388;51.129;18.773;26.404;25.794
31.816.406;-398.199;44.719;18.162;17.552;33.120
31.835.938;-401.252;43.498;19.689;16.331;0.9921
31.855.469;-410.104;46.245;23.046;19.994;-31.899
31.875.000;-419.261;52.656;26.709;23.352;-70.665
31.894.531;-423.535;61.813;31.593;24.573;-107.906
31.914.063;-418.346;72.497;38.919;24.267;-163.767
31.933.594;-401.862;83.486;48.687;24.267;-237.027
31.953.125;-380.494;90.812;59.371;27.930;-281.593
31.972.656;-367.063;92.338;67.002;33.425;-279.151
31.992.188;-372.253;87.149;70.360;38.004;-249.847
32.011.719;-396.673;77.076;70.360;41.667;-210.775
32.031.250;-431.777;66.087;68.834;46.551;-171.093
32.050.781;-467.796;57.540;67.918;56.624;-135.379
32.070.313;-498.626;53.571;69.444;73.718;-112.485
32.089.844;-522.436;52.350;70.665;94.475;-98.138
32.109.375;-542.277;49.908;70.360;112.790;-78.907
32.128.906;-561.508;44.109;67.918;122.253;-64.560
32.148.438;-580.128;33.730;64.560;121.642;-63.950
32.167.969;-596.306;20.299;59.982;114.621;-74.939
32.187.500;-609.737;0.6868;55.098;105.769;-99.359
32.207.031;-623.779;-0.3510;51.129;98.443;-117.674
32.226.563;-641.789;-11.142;47.466;93.254;-116.148
32.246.094;-662.851;-15.110;44.414;86.538;-112.179
32.265.625;-683.913;-15.720;40.751;76.465;-123.474
32.285.156;-704.670;-16.636;35.562;60.897;-148.810
32.304.688;-729.396;-21.520;26.709;40.140;-182.692
32.324.219;-757.173;-30.067;16.026;20.604;-225.733
32.343.750;-784.341;-40.446;0.5342;0.7479;-273.046
32.363.281;-807.540;-52.045;-0.5342;-0.0458;-316.392
32.382.813;-827.991;-64.560;-17.247;-10.531;-357.295
32.402.344;-849.054;-76.160;-29.762;-25.488;-401.557
32.421.875;-868.895;-85.317;-41.056;-41.667;-434.524
32.441.406;-880.800;-90.812;-49.603;-52.656;-444.597
32.460.938;-872.863;-94.170;-54.792;-58.150;-439.713
32.480.469;-850.885;-97.527;-57.540;-60.897;-414.377
32.500.000;-847.833;-101.190;-58.455;-59.982;-364.011
32.519.531;-876.832;-104.243;-58.150;-55.098;-307.845
32.539.063;-919.261;-105.769;-56.929;-48.382;-269.078
32.558.594;-956.197;-106.685;-54.487;-40.751;-259.615
32.578.125;-980.922;-106.380;-51.129;-32.509;-269.994
32.597.656;-996.184;-104.548;-46.856;-24.267;-278.846
32.617.188;-1.008.394;-100.580;-40.446;-16.331;-280.678
32.636.719;-1.024.267;-96.612;-32.509;-0.8394;-273.352
32.656.250;-1.047.466;-94.475;-24.267;-0.2595;-255.342
32.675.781;-1.078.602;-95.085;-19.383;-0.2595;-240.690
32.695.313;-1.106.074;-98.138;-19.078;-0.9310;-245.269
32.714.844;-1.114.927;-103.327;-21.825;-19.383;-265.415
32.734.375;-1.101.190;-106.685;-26.709;-29.151;-279.457
32.753.906;-1.074.634;-107.601;-33.425;-36.172;-269.994
32.773.438;-1.043.803;-107.295;-41.361;-39.225;-250.153
32.792.969;-1.015.415;-106.685;-50.214;-40.140;-251.374
32.812.500;-994.658;-105.464;-59.982;-43.193;-290.751
32.832.031;-981.838;-103.327;-68.834;-49.908;-350.885
32.851.563;-972.070;-99.359;-76.770;-58.150;-384.158
32.871.094;-959.554;-92.949;-83.181;-66.087;-376.221
32.890.625;-939.103;-85.928;-87.454;-71.581;-354.853
32.910.156;-909.493;-80.433;-89.591;-74.939;-340.812
32.929.688;-876.526;-78.297;-92.338;-78.602;-344.475
32.949.219;-845.696;-79.212;-96.612;-84.096;-360.043
32.968.750;-820.360;-83.181;-101.190;-88.980;-368.284
32.988.281;-800.519;-87.149;-103.938;-92.033;-359.737
33.007.813;-787.088;-89.286;-105.769;-92.643;-341.728
33.027.344;-780.678;-87.149;-104.853;-92.033;-332.265
33.046.875;-779.151;-80.433;-100.275;-91.117;-334.096
33.066.406;-779.151;-69.139;-91.117;-86.844;-338.065
33.085.938;-777.320;-53.571;-78.297;-77.076;-348.138
33.105.469;-772.131;-37.088;-64.866;-63.645;-379.884
33.125.000;-765.720;-23.657;-55.098;-52.350;-432.082
33.144.531;-758.089;-15.415;-50.214;-46.245;-469.322
33.164.063;-746.795;-11.447;-50.519;-46.551;-474.512
33.183.594;-729.396;-10.226;-53.877;-52.045;-470.238
33.203.125;-705.281;-10.226;-58.150;-57.845;-456.807
33.222.656;-674.756;-10.226;-59.982;-58.761;-414.988
33.242.188;-641.178;-10.531;-59.371;-53.571;-356.990
33.261.719;-607.601;-12.973;-58.150;-46.245;-312.424
33.281.250;-562.118;-19.078;-58.761;-41.056;-296.245
33.300.781;-502.289;-30.372;-62.729;-37.698;-291.361
33.320.313;-459.554;-42.277;-66.392;-34.646;-274.878
33.339.844;-455.281;-49.603;-66.697;-30.678;-255.037
33.359.375;-475.122;-51.129;-63.034;-27.015;-248.626
33.378.906;-498.932;-48.077;-56.624;-23.962;-259.615
33.398.438;-517.552;-43.193;-49.603;-22.131;-293.193
33.417.969;-529.457;-38.309;-41.667;-22.436;-327.686
33.437.500;-539.225;-33.425;-33.120;-24.878;-340.201
33.457.031;-550.519;-28.236;-25.488;-32.204;-347.527
33.476.563;-561.813;-23.657;-19.383;-41.972;-340.812
33.496.094;-567.918;-21.215;-14.499;-47.772;-287.698
33.515.625;-564.255;-22.436;-0.9615;-44.414;-204.670
33.535.156;-552.045;-25.794;-0.5647;-32.509;-146.368
33.554.688;-534.951;-29.151;-0.2595;-15.720;-135.073
33.574.219;-515.415;-31.288;-0.0458;0.0153;-127.747
33.593.750;-495.574;-32.204;-0.0763;11.447;-88.675
33.613.281;-475.733;-33.425;-0.3816;15.415;-23.046
33.632.813;-458.333;-34.035;-0.9921;12.973;49.603
33.652.344;-446.734;-32.814;-17.247;0.8089;98.748
33.671.875;-441.239;-29.457;-23.657;0.5037;105.769
33.691.406;-440.324;-25.183;-27.320;0.2595;81.349
33.710.938;-441.850;-21.825;-28.541;-0.0458;40.140
33.730.469;-438.492;-20.299;-27.015;-0.1374;-12.363
33.750.000;-426.587;-19.689;-23.046;0.1068;-81.044
33.769.531;-409.493;-18.468;-18.468;0.1984;-164.988
33.789.063;-390.568;-17.857;-15.720;-0.1984;-244.658
33.808.594;-371.947;-18.468;-13.584;-0.9310;-301.435
33.828.125;-356.990;-19.078;-10.226;-14.194;-335.012
33.847.656;-347.222;-18.468;-0.4731;-13.889;-356.074
33.867.188;-341.117;-17.247;0.1679;-0.8394;-366.453
33.886.719;-336.844;-15.110;0.9615;0.2289;-358.517
33.906.250;-331.044;-13.889;16.941;15.415;-324.634
33.925.781;-323.107;-14.499;23.352;26.099;-267.247
33.945.313;-316.392;-14.499;28.846;34.951;-193.376
33.964.844;-313.034;-13.278;34.035;45.024;-117.674
33.984.375;-310.592;-11.447;38.919;57.845;-63.339
34.003.906;-307.540;-0.9615;43.803;73.718;-35.867
34.023.438;-303.266;-0.7479;49.908;93.254;-25.488
34.042.969;-298.382;-0.3816;57.540;116.453;-21.825
34.062.500;-294.414;-0.0153;66.392;140.263;-24.267
34.082.031;-291.972;0.1374;74.023;161.325;-43.803
34.101.563;-288.309;0.0458;77.991;174.145;-70.360
34.121.094;-284.646;-0.1068;76.465;173.230;-82.265
34.140.625;-282.204;-0.2595;69.750;156.746;-77.076
34.160.156;-277.930;-0.5342;58.455;128.968;-64.560
34.179.688;-269.383;-0.9921;45.330;96.917;-59.676
34.199.219;-258.089;-15.720;32.509;67.613;-64.866
34.218.750;-246.184;-21.215;23.352;47.161;-70.055
34.238.281;-234.890;-23.962;18.773;36.477;-74.634
34.257.813;-221.764;-22.131;17.247;32.509;-91.422
34.277.344;-202.839;-16.026;17.247;32.204;-114.927
34.296.875;-178.724;-0.6868;16.941;35.867;-116.758
34.316.406;-155.525;0.0458;16.941;40.751;-92.338
34.335.938;-143.315;0.2900;15.720;45.330;-65.476
34.355.469;-147.894;-0.2289;12.973;47.466;-48.382
34.375.000;-166.819;-14.805;0.9005;46.245;-30.983
34.394.531;-190.934;-29.457;0.5647;43.193;0.5647
34.414.063;-212.912;-42.888;0.3205;41.361;59.676
34.433.594;-232.143;-54.792;-0.0458;40.446;109.737
34.453.125;-251.374;-66.087;-0.7173;36.172;150.336
34.472.656;-269.689;-75.855;-15.415;28.541;190.018
34.492.188;-283.425;-83.791;-22.436;20.604;221.459
34.511.719;-292.277;-90.201;-27.015;16.026;224.817
34.531.250;-298.382;-93.254;-27.625;15.110;201.007
34.550.781;-302.045;-92.033;-22.436;16.636;180.861
34.570.313;-300.824;-86.538;-12.668;20.910;172.924
34.589.844;-294.109;-78.602;0.0458;30.983;131.716
34.609.375;-287.698;-70.055;15.720;45.024;34.341
34.628.906;-286.477;-62.729;28.846;54.792;-72.192
34.648.438;-282.204;-59.371;34.951;53.266;-148.810
34.667.969;-264.194;-60.897;33.425;39.530;-207.418
34.687.500;-247.100;-67.308;25.794;16.331;-279.762
34.707.031;-251.679;-75.244;15.110;-11.142;-368.284
34.726.563;-273.962;-81.349;0.3816;-35.867;-446.734
34.746.094;-296.856;-85.623;-0.4426;-49.298;-498.932
34.765.625;-308.761;-87.759;-0.8394;-49.603;-516.941
34.785.156;-310.592;-87.454;-0.8394;-40.751;-502.595
34.804.688;-308.150;-87.759;-0.6563;-27.625;-478.785
34.824.219;-307.234;-89.286;-0.5952;-16.636;-453.144
34.843.750;-310.897;-92.033;-0.6868;-0.9615;-419.261
34.863.281;-319.750;-94.475;-0.7173;-0.6868;-386.294
34.882.813;-329.212;-96.917;-0.7479;-10.531;-362.179
34.902.344;-335.317;-99.359;-0.9921;-20.604;-337.759
34.921.875;-334.707;-101.190;-12.973;-29.762;-303.571
34.941.406;-327.381;-101.190;-13.584;-33.120;-249.847
34.960.938;-316.087;-99.969;-11.752;-30.678;-172.924
34.980.469;-304.792;-96.917;-0.6868;-23.352;-97.222
35.000.000;-296.856;-90.507;0.1679;-11.447;-45.635
35.019.531;-292.277;-81.654;13.278;0.2595;-23.046
35.039.063;-290.140;-71.886;25.183;15.415;-17.552
35.058.594;-288.919;-62.729;38.309;26.709;-11.752
35.078.125;-287.393;-54.487;52.350;39.835;-0.4731
35.097.656;-283.425;-48.382;65.781;53.877;0.5952
35.117.188;-276.404;-43.803;77.381;68.223;35.562
35.136.719;-266.026;-40.140;85.317;80.739;72.497
