Time;Fp2-F4;F4-C4;C4-P4;P4-O2;C4-A1
35.156.250;-251.068;-38.004;87.759;89.286;89.286
35.175.781;-232.753;-37.393;85.928;93.864;84.707
35.195.313;-216.270;-39.225;80.128;95.696;61.203
35.214.844;-204.365;-42.888;70.665;95.391;0.4426
35.234.375;-197.039;-47.161;58.761;92.643;-67.002
35.253.906;-193.071;-51.435;44.719;83.181;-115.537
35.273.438;-192.460;-55.708;28.541;63.339;-138.431
35.292.969;-193.376;-60.287;10.226;34.951;-159.188
35.312.500;-193.681;-64.866;-0.7479;0.4121;-173.840
35.332.031;-190.324;-68.834;-21.520;-21.825;-165.904
35.351.563;-181.166;-70.665;-30.067;-37.698;-143.926
35.371.094;-168.040;-71.276;-34.035;-45.024;-115.842
35.390.625;-153.694;-71.276;-35.256;-48.382;-66.087
35.410.156;-139.957;-70.665;-30.983;-44.414;16.636
35.429.688;-128.968;-67.613;-18.468;-27.320;113.706
35.449.219;-122.558;-62.729;-0.0763;-0.1374;202.839
35.468.750;-124.084;-58.455;14.805;16.636;281.288
35.488.281;-133.547;-55.403;25.183;19.383;341.117
35.507.813;-144.231;-52.656;32.509;15.415;374.084
35.527.344;-149.420;-48.382;41.056;18.468;365.537
35.546.875;-147.894;-41.667;50.519;29.457;300.519
35.566.406;-141.178;-35.256;56.624;36.783;208.028
35.585.938;-127.442;-34.035;54.487;28.846;132.021
35.605.469;-106.990;-40.446;43.803;0.4731;65.476
35.625.000;-85.623;-48.993;29.457;-23.962;-20.604
35.644.531;-70.360;-55.708;16.331;-45.330;-114.927
35.664.063;-65.476;-58.455;0.6868;-52.350;-181.166
35.683.594;-70.665;-56.929;0.3205;-43.498;-217.186
35.703.125;-80.739;-52.045;0.4121;-22.741;-236.722
35.722.656;-90.201;-44.719;0.7784;0.3816;-243.742
35.742.188;-96.612;-36.477;10.836;27.015;-243.437
35.761.719;-101.496;-28.846;0.9921;38.919;-233.974
35.781.250;-105.464;-22.131;0.8394;45.330;-209.554
35.800.781;-104.548;-15.415;11.142;57.540;-180.556
35.820.313;-97.527;-10.531;18.468;77.381;-156.136
35.839.844;-89.896;-0.8700;25.794;95.696;-133.547
35.859.375;-86.538;-11.142;30.372;102.411;-118.590
35.878.906;-85.012;-16.636;32.814;100.885;-120.421
35.898.438;-81.349;-23.046;36.172;100.580;-113.706
35.917.969;-76.160;-29.151;42.888;105.769;-74.023
35.937.500;-73.718;-34.035;50.824;113.095;-10.226
35.957.031;-75.549;-38.004;57.845;116.148;84.402
35.976.563;-78.602;-42.277;59.982;106.380;199.481
35.996.094;-81.044;-47.772;55.403;81.654;285.256
36.015.625;-80.128;-53.877;48.382;53.877;323.107
36.035.156;-65.781;-57.234;44.414;38.004;334.707
36.054.688;-31.593;-57.234;44.719;38.614;331.960
36.074.219;-0.0763;-56.319;45.635;43.803;312.118
36.093.750;0.4121;-55.708;42.582;38.309;272.436
36.113.281;-0.9921;-54.487;37.393;23.046;218.101
36.132.813;-30.678;-52.045;34.035;0.8700;143.926
36.152.344;-49.298;-47.772;35.562;0.4731;31.593
36.171.875;-60.897;-40.446;43.803;16.331;-112.485
36.191.406;-64.255;-31.593;56.013;38.004;-237.943
36.210.938;-65.171;-24.267;66.087;56.929;-309.982
36.230.469;-68.223;-20.910;69.139;62.118;-339.591
36.250.000;-70.360;-23.046;64.866;51.435;-332.875
36.269.531;-64.255;-27.320;55.708;29.151;-279.151
36.289.063;-45.635;-30.678;44.719;0.5037;-196.429
36.308.594;-20.910;-31.288;34.951;-0.9921;-117.674
36.328.125;-0.1984;-31.288;27.625;-12.973;-48.687
36.347.656;-0.0763;-34.646;21.825;-0.8394;37.393
36.367.188;-20.299;-42.582;15.415;-0.4731;173.230
36.386.719;-54.792;-52.961;0.6258;-0.9921;351.496
36.406.250;-92.949;-63.645;-0.6563;-27.930;525.794
36.425.781;-124.695;-71.886;-21.215;-51.435;648.199
36.445.313;-150.031;-77.991;-35.256;-69.139;682.387
36.464.844;-173.230;-83.181;-47.772;-77.076;614.927
36.484.375;-193.681;-90.201;-58.455;-77.991;468.407
36.503.906;-205.281;-99.664;-66.087;-69.750;273.657
36.523.438;-205.586;-108.516;-69.750;-51.129;39.530
36.542.969;-196.429;-117.063;-71.581;-32.509;-227.564
36.562.500;-172.314;-130.800;-75.549;-26.404;-504.426
36.582.031;-121.947;-153.999;-82.570;-32.204;-746.490
36.601.563;-57.540;-180.861;-88.065;-36.783;-918.956
36.621.094;-0.7173;-198.871;-86.233;-28.541;-1.020.299
36.640.625;25.183;-201.313;-77.686;-14.805;-1.066.697
36.660.156;27.015;-192.766;-69.444;-10.226;-1.066.697
36.679.688;-23.352;-181.471;-66.087;-16.941;-1.015.720
36.699.219;-111.874;-171.093;-66.392;-27.015;-916.514
36.718.750;-204.060;-163.767;-68.223;-36.783;-798.382
36.738.281;-278.846;-158.578;-72.192;-50.824;-683.913
36.757.813;-333.181;-155.220;-79.823;-72.192;-589.286
36.777.344;-369.200;-153.999;-91.728;-97.222;-527.015
36.796.875;-393.010;-152.778;-104.243;-119.811;-476.954
36.816.406;-413.462;-145.757;-110.958;-132.937;-426.893
36.835.938;-433.913;-132.021;-109.737;-133.852;-394.231
36.855.469;-452.228;-115.537;-102.717;-124.084;-370.727
36.875.000;-462.912;-99.969;-90.507;-102.717;-332.265
36.894.531;-460.775;-87.149;-72.497;-69.444;-267.552
36.914.063;-446.123;-78.907;-52.656;-33.425;-182.387
36.933.594;-423.230;-74.023;-36.172;-0.7173;-90.507
36.953.125;-399.115;-72.192;-25.183;0.4731;0.5342
36.972.656;-379.884;-73.718;-18.468;0.6868;95.391
36.992.188;-367.674;-80.433;-15.415;0.3205;148.504
37.011.719;-360.958;-92.033;-16.636;-0.4121;150.336
37.031.250;-351.801;-107.601;-23.657;-14.499;132.021
37.050.781;-326.770;-125.305;-34.341;-25.794;127.442
37.070.313;-288.004;-142.094;-45.635;-35.867;132.326
37.089.844;-249.847;-156.441;-56.013;-42.888;135.989
37.109.375;-221.459;-166.209;-64.866;-46.245;134.158
37.128.906;-200.092;-169.261;-71.276;-46.245;121.642
37.148.438;-182.082;-164.683;-74.023;-45.330;108.516
37.167.969;-167.735;-152.473;-72.802;-42.888;98.443
37.187.500;-160.714;-135.684;-69.139;-37.393;69.139
37.207.031;-156.441;-119.200;-63.950;-28.846;17.552
37.226.563;-138.126;-106.074;-56.624;-16.331;-22.436
37.246.094;-102.106;-96.612;-48.077;-0.2595;-28.541
37.265.625;-74.328;-88.675;-39.530;0.7784;-0.3816
37.285.156;-71.581;-81.044;-31.288;12.057;39.225
37.304.688;-83.181;-74.634;-23.352;0.9921;84.707
37.324.219;-97.222;-70.360;-15.110;0.5647;123.168
37.343.750;-109.127;-67.002;-0.5647;0.2289;156.441
37.363.281;-117.063;-61.508;0.5342;0.2595;190.018
37.382.813;-123.779;-52.656;17.552;0.6563;225.733
37.402.344;-133.547;-43.193;28.846;12.363;264.194
37.421.875;-144.536;-35.562;38.614;19.689;307.540
37.441.406;-147.894;-31.288;46.245;27.015;338.370
37.460.938;-136.905;-30.983;52.350;31.288;340.507
37.480.469;-114.927;-34.035;56.624;31.899;323.107
37.500.000;-88.675;-39.225;57.234;28.541;299.298
37.519.531;-59.676;-45.024;53.877;22.436;281.288
37.539.063;-30.067;-50.214;48.993;15.415;272.131
37.558.594;-0.2900;-52.961;45.330;0.9921;269.689
37.578.125;19.689;-52.961;43.803;0.7173;267.247
37.597.656;35.867;-49.603;43.498;0.5342;247.711
37.617.188;40.751;-43.498;44.414;0.5037;206.807
37.636.719;34.951;-37.698;46.551;0.8700;162.241
37.656.250;27.930;-32.814;51.740;19.689;112.179
37.675.781;27.625;-28.541;60.897;36.172;23.657
37.695.313;36.172;-23.962;70.055;51.129;-72.497
37.714.844;52.350;-19.383;75.244;61.813;-88.370
37.734.375;72.497;-14.194;78.907;70.055;-12.973
37.753.906;91.728;-0.8089;82.265;77.686;102.106
37.773.438;107.295;-0.1679;85.928;86.844;220.238
37.792.969;118.590;0.3816;89.896;97.222;317.308
37.812.500;126.526;0.8394;91.728;104.243;380.800
37.832.031;132.326;12.057;90.812;105.769;414.377
37.851.563;138.736;13.584;87.454;103.938;430.250
37.871.094;145.452;12.057;82.875;99.664;436.966
37.890.625;152.167;0.7173;77.381;94.475;433.303
37.910.156;157.967;0.1984;72.802;91.422;420.177
37.929.688;162.546;-0.0763;70.665;92.643;397.589
37.949.219;164.377;-0.1679;71.276;97.833;359.737
37.968.750;163.767;-0.1374;74.023;106.685;305.708
37.988.281;161.020;-0.1068;79.823;118.590;244.353
38.007.813;157.967;-0.1374;86.538;130.495;186.966
38.027.344;155.525;-0.1374;90.507;138.431;156.746
38.046.875;153.999;-0.1679;90.507;140.873;164.072
38.066.406;156.441;-0.1984;88.675;141.484;182.082
38.085.938;164.683;-0.2289;87.759;146.062;203.449
38.105.469;175.977;-0.3205;87.759;156.441;243.742
38.125.000;186.661;-0.4426;87.149;166.514;297.161
38.144.531;194.292;-0.7173;83.181;171.398;342.643
38.164.063;197.344;-11.447;74.023;167.735;370.727
38.183.594;195.818;-16.026;61.508;153.999;380.189
38.203.125;192.155;-19.994;49.603;133.852;374.695
38.222.656;188.492;-23.657;40.140;111.874;355.464
38.242.188;186.050;-26.404;32.814;95.696;335.317
38.261.719;186.661;-26.099;28.541;91.117;334.096
38.281.250;193.071;-22.741;27.015;99.054;330.128
38.300.781;205.281;-19.078;27.625;112.485;294.414
38.320.313;219.933;-16.941;29.151;121.642;259.005
38.339.844;233.059;-18.162;27.930;115.232;253.816
38.359.375;242.216;-21.825;22.131;92.033;261.752
38.378.906;248.016;-26.709;13.278;64.866;264.805
38.398.438;251.068;-30.983;0.5952;44.109;245.879
38.417.969;251.068;-34.951;0.0763;30.678;199.176
38.437.500;247.711;-38.614;-0.3510;19.383;161.935
38.457.031;242.521;-42.277;-0.8700;0.7479;149.420
38.476.563;238.248;-46.245;-12.668;-0.3510;134.768
38.496.094;236.722;-50.214;-15.720;-14.499;106.685
38.515.625;237.637;-54.182;-18.468;-27.930;75.549
38.535.156;240.995;-57.540;-18.773;-38.309;59.982
38.554.688;244.353;-58.150;-13.584;-36.477;67.002
38.574.219;244.658;-56.929;-0.5647;-26.404;83.791
38.593.750;240.690;-56.624;0.0763;-17.857;96.612
38.613.281;233.974;-58.455;0.6868;-10.226;100.580
38.632.813;225.733;-61.508;14.499;0.0763;103.327
38.652.344;217.796;-64.866;22.436;12.363;110.348
38.671.875;210.775;-69.139;27.015;16.941;118.895
38.691.406;205.586;-73.107;27.320;14.805;119.811
38.710.938;202.228;-75.549;26.709;11.447;104.853
38.730.469;201.618;-76.160;26.404;10.531;77.991
38.750.000;203.449;-75.244;26.709;13.889;54.792
38.769.531;207.723;-73.413;27.320;21.520;48.382
38.789.063;213.828;-71.581;25.183;27.320;54.487
38.808.594;219.017;-70.055;19.078;27.930;68.529
38.828.125;222.680;-68.223;12.057;29.151;90.507
38.847.656;225.427;-65.781;0.7479;34.646;108.211
38.867.188;227.259;-64.866;0.5037;40.751;114.621
38.886.719;228.175;-65.476;0.2900;42.582;100.580
38.906.250;229.396;-67.308;-0.0763;38.614;63.034
38.925.781;230.922;-69.750;-0.5647;31.593;18.162
38.945.313;230.311;-73.413;-10.531;23.046;-20.604
38.964.844;226.343;-77.381;-14.499;14.805;-44.414
38.984.375;219.017;-80.128;-16.941;11.752;-34.341
39.003.906;211.081;-81.044;-16.331;17.857;14.194
39.023.438;204.670;-82.265;-13.584;32.204;82.875
39.042.969;200.092;-84.402;-0.9921;48.687;149.725
39.062.500;197.344;-88.065;-0.7479;62.118;201.313
39.082.031;198.871;-91.422;-0.6258;72.192;232.753
39.101.563;203.755;-93.254;-0.6563;77.381;233.669
39.121.094;210.775;-94.170;-0.8089;76.770;193.987
39.140.625;219.322;-92.949;-11.142;73.107;123.779
39.160.156;228.480;-90.201;-14.499;64.866;44.414
39.179.688;236.722;-87.149;-19.078;50.519;-17.857
39.199.219;245.269;-84.096;-23.657;31.593;-49.603
39.218.750;254.731;-81.349;-27.320;11.447;-54.182
39.238.281;264.805;-78.907;-29.457;-0.8394;-39.835
39.257.813;275.488;-76.465;-30.983;-26.099;-19.078
39.277.344;286.172;-74.023;-30.678;-38.919;-0.8089
39.296.875;295.635;-71.886;-27.625;-45.635;-24.267
39.316.406;305.098;-69.139;-22.436;-48.382;-62.729
39.335.938;315.476;-65.781;-16.331;-49.298;-94.475
39.355.469;326.465;-62.424;-11.752;-48.382;-104.243
39.375.000;338.065;-59.371;-0.8394;-43.498;-104.548
39.394.531;349.359;-56.929;-0.6258;-34.951;-120.421
39.414.063;359.737;-54.487;-0.5342;-23.962;-152.473
39.433.594;367.063;-51.740;-0.6258;-12.363;-181.471
39.453.125;371.337;-49.908;-0.9310;-0.4426;-206.197
39.472.656;372.253;-51.129;-14.194;-0.2900;-240.995
39.492.188;370.421;-55.708;-21.520;-0.9005;-279.762
39.511.719;367.369;-63.339;-29.762;-20.299;-280.678
39.531.250;362.485;-72.802;-36.783;-34.341;-230.617
39.550.781;354.853;-81.349;-41.361;-47.161;-160.714
39.570.313;344.475;-88.065;-43.193;-56.013;-103.632
39.589.844;333.181;-93.254;-42.582;-59.982;-78.297
39.609.375;323.107;-96.612;-38.919;-56.624;-68.529
39.628.906;314.560;-98.138;-32.509;-48.382;-37.088
39.648.438;306.624;-98.443;-27.015;-41.972;12.668
39.667.969;301.435;-98.748;-23.352;-40.751;52.045
39.687.500;301.435;-100.885;-21.825;-45.024;70.055
39.707.031;304.487;-105.159;-23.657;-55.098;74.939
39.726.563;308.761;-112.790;-30.678;-73.413;71.276
39.746.094;315.171;-121.642;-41.667;-94.780;50.214
39.765.625;323.413;-128.968;-53.877;-111.569;-0.2289
39.785.156;329.212;-134.158;-64.866;-123.168;-81.654
39.804.688;331.960;-138.431;-73.107;-134.158;-144.536
39.824.219;331.044;-140.568;-77.991;-143.620;-151.557
39.843.750;327.076;-139.652;-80.128;-147.894;-115.537
39.863.281;321.276;-136.905;-80.739;-145.147;-70.971
39.882.813;317.613;-132.326;-78.297;-136.600;-30.067
39.902.344;318.223;-126.832;-72.192;-121.337;0.7173
39.921.875;322.802;-123.474;-63.645;-99.969;24.878
39.941.406;329.212;-122.863;-56.013;-77.076;0.0458
39.960.938;334.707;-124.695;-52.045;-60.287;-50.519
39.980.469;336.233;-128.053;-52.656;-57.540;-97.527
40.000.000;-59.371;-0.2595;-28.541;-18.468;-535.256
40.019.531;-98.748;-11.142;-17.247;0.4426;-548.382
40.039.063;-162.546;-31.288;-0.9615;26.404;-539.835
40.058.594;-233.669;-55.098;-0.5952;39.225;-531.593
40.078.125;-302.656;-77.991;-0.5952;39.530;-528.541
40.097.656;-366.148;-99.359;-0.7479;29.762;-516.941
40.117.188;-422.314;-118.590;-0.7479;17.857;-500.153
40.136.719;-469.017;-133.852;-0.4731;11.447;-481.838
40.156.250;-505.037;-144.536;-0.1068;0.9921;-467.796
40.175.781;-530.983;-150.946;0.1984;0.7173;-465.354
40.195.313;-546.856;-154.304;0.5037;0.1068;-471.154
40.214.844;-553.877;-155.220;0.7479;-0.7479;-486.416
40.234.375;-553.571;-155.830;0.7784;-19.078;-504.426
40.253.906;-545.940;-157.357;0.5342;-34.341;-487.637
40.273.438;-531.899;-158.883;0.0153;-51.435;-427.808
40.292.969;-516.331;-159.799;-0.6563;-70.055;-365.537
40.312.500;-503.816;-160.409;-13.584;-88.065;-320.055
40.332.031;-495.574;-159.188;-16.941;-96.001;-283.120
40.351.563;-490.079;-154.609;-13.584;-85.012;-252.595
40.371.094;-484.585;-147.894;-0.4731;-59.676;-237.332
40.390.625;-478.175;-142.705;0.2900;-35.562;-240.690
40.410.156;-473.291;-139.652;0.4731;-20.299;-261.142
40.429.688;-469.322;-136.600;0.2595;-0.9310;-306.013
40.449.219;-462.607;-132.631;0.0153;0.0153;-376.221
40.468.750;-454.060;-128.663;-0.3205;0.0153;-454.365
40.488.281;-448.260;-126.221;-10.836;-15.110;-507.784
40.507.813;-449.176;-126.526;-23.657;-44.109;-507.173
40.527.344;-455.586;-128.663;-38.919;-75.855;-456.197
40.546.875;-464.133;-129.884;-51.740;-101.496;-386.294
40.566.406;-473.596;-130.495;-59.066;-117.979;-327.076
40.585.938;-483.974;-130.800;-59.982;-123.779;-284.951
40.605.469;-493.437;-128.968;-55.403;-118.284;-258.394
40.625.000;-500.458;-125.305;-48.687;-103.327;-246.795
40.644.531;-504.121;-121.642;-41.056;-84.707;-237.332
40.664.063;-503.205;-119.200;-34.341;-65.171;-227.259
40.683.594;-498.321;-117.369;-27.930;-43.498;-220.849
40.703.125;-493.132;-116.453;-22.741;-21.215;-208.639
40.722.656;-489.774;-118.590;-20.299;-0.5342;-193.376
40.742.188;-488.248;-123.168;-21.825;0.1068;-189.408
40.761.719;-486.416;-128.968;-25.183;0.0763;-196.429
40.781.250;-484.280;-134.463;-29.457;-0.2289;-213.523
40.800.781;-482.143;-138.736;-35.562;-0.5952;-233.364
40.820.313;-478.480;-141.178;-43.498;-0.8394;-235.195
40.839.844;-472.985;-141.789;-50.519;-0.8089;-218.407
40.859.375;-468.101;-141.178;-55.098;-0.6258;-188.187
40.878.906;-465.049;-139.347;-56.013;-0.2900;-142.705
40.898.438;-463.217;-136.294;-55.098;0.1374;-89.286
40.917.969;-461.691;-132.021;-52.656;0.8394;-44.719
40.937.500;-458.333;-126.832;-49.908;14.499;-27.320
40.957.031;-454.060;-122.558;-49.603;14.499;-36.783
40.976.563;-452.534;-120.726;-51.740;0.6563;-50.824
40.996.094;-453.449;-120.116;-54.487;-0.5342;-60.897
41.015.625;-453.755;-117.674;-56.624;-17.552;-65.781
41.035.156;-451.923;-113.706;-56.319;-25.488;-75.855
41.054.688;-449.481;-110.653;-52.656;-26.404;-120.116
41.074.219;-448.565;-109.737;-47.161;-21.215;-210.775
41.093.750;-447.955;-110.653;-41.056;-10.531;-328.297
41.113.281;-447.955;-112.790;-36.477;0.1984;-445.208
41.132.813;-449.176;-116.453;-34.341;12.973;-545.330
41.152.344;-452.534;-121.642;-34.951;21.825;-618.284
41.171.875;-457.723;-128.358;-35.562;29.457;-659.188
41.191.406;-464.744;-135.379;-36.477;36.783;-675.366
41.210.938;-472.985;-142.399;-37.393;43.803;-675.977
41.230.469;-482.143;-148.810;-38.614;50.214;-669.261
41.250.000;-490.690;-155.220;-41.056;54.792;-657.662
41.269.531;-498.932;-160.714;-46.245;57.234;-640.873
41.289.063;-508.394;-165.904;-53.266;58.455;-630.189
41.308.594;-519.689;-170.788;-61.508;58.455;-631.410
41.328.125;-529.457;-174.756;-68.529;56.929;-632.631
41.347.656;-532.204;-175.672;-71.886;54.487;-627.747
41.367.188;-524.267;-173.230;-70.971;51.129;-616.453
41.386.719;-508.089;-168.651;-66.392;46.245;-584.402
41.406.250;-490.995;-164.072;-60.897;39.225;-527.930
41.425.781;-481.532;-161.325;-56.624;29.457;-466.575
41.445.313;-482.753;-159.188;-54.182;19.383;-409.493
41.464.844;-493.132;-156.746;-52.656;12.057;-369.811
41.484.375;-508.394;-153.694;-51.129;0.8089;-367.979
41.503.906;-526.404;-151.252;-49.908;0.5647;-378.968
41.523.438;-546.551;-149.420;-48.993;0.3816;-369.506
41.542.969;-569.444;-148.810;-48.382;0.4426;-342.643
41.562.500;-593.559;-147.894;-48.382;0.8394;-311.813
41.582.031;-613.706;-144.841;-48.993;14.194;-285.867
41.601.563;-627.747;-139.957;-49.298;21.520;-269.383
41.621.094;-638.431;-136.600;-48.687;29.762;-262.057
41.640.625;-650.031;-136.600;-47.466;37.088;-256.868
41.660.156;-663.462;-138.736;-45.330;44.414;-236.416
41.679.688;-676.893;-141.789;-43.193;51.129;-200.702
41.699.219;-688.797;-145.147;-41.056;57.234;-178.724
41.718.750;-699.786;-149.420;-38.919;61.203;-188.797
41.738.281;-709.860;-154.609;-37.088;63.339;-211.386
41.757.813;-719.933;-161.020;-35.562;63.339;-217.796
41.777.344;-733.669;-168.346;-34.646;60.287;-205.891
41.796.875;-751.984;-176.282;-34.646;54.792;-188.492
41.816.406;-771.215;-183.303;-36.172;48.077;-173.840
41.835.938;-785.867;-187.271;-36.477;41.667;-154.609
41.855.469;-795.330;-186.355;-35.256;36.783;-119.811
41.875.000;-804.487;-182.998;-34.341;33.425;-92.033
41.894.531;-817.308;-179.640;-35.562;29.762;-111.264
41.914.063;-832.570;-177.503;-39.225;25.794;-164.072
41.933.594;-847.527;-175.672;-43.193;20.604;-207.112
41.953.125;-859.737;-173.535;-46.856;14.499;-225.427
41.972.656;-868.590;-170.788;-49.603;0.9310;-220.238
41.992.188;-876.832;-169.261;-50.214;0.7784;-216.575
42.011.719;-887.515;-169.261;-48.993;0.8700;-248.932
42.031.250;-899.420;-170.482;-46.856;0.9005;-285.562
42.050.781;-907.051;-171.093;-43.498;0.9921;-270.910
42.070.313;-905.525;-169.872;-37.698;14.805;-219.933
42.089.844;-897.283;-166.514;-29.762;25.488;-174.756
42.109.375;-885.989;-160.409;-18.773;45.330;-142.399
42.128.906;-871.032;-151.862;-0.5647;72.802;-120.726
42.148.438;-852.106;-143.010;0.4426;96.612;-114.621
42.167.969;-832.265;-137.210;0.8394;106.380;-123.168
42.187.500;-815.781;-133.547;0.5647;99.969;-135.989
42.207.031;-801.435;-130.800;-0.2289;78.602;-133.852
42.226.563;-785.562;-128.053;-14.805;46.856;-106.685
42.246.094;-765.415;-124.389;-27.930;12.668;-65.171
42.265.625;-744.048;-119.505;-41.056;-19.689;-32.204
42.285.156;-724.817;-114.316;-52.045;-48.382;-0.8700
42.304.688;-706.197;-107.601;-58.455;-65.476;15.415
42.324.219;-685.134;-98.443;-58.150;-67.613;43.193
42.343.750;-660.714;-88.065;-54.182;-61.203;77.076
42.363.281;-636.905;-80.128;-52.045;-58.150;108.822
42.382.813;-617.063;-76.465;-52.656;-62.729;125.611
42.402.344;-600.275;-75.244;-52.350;-66.087;134.463
42.421.875;-581.960;-71.886;-46.856;-59.066;141.178
42.441.406;-557.845;-64.255;-35.256;-39.835;141.789
42.460.938;-528.541;-53.266;-19.994;-16.026;132.021
42.480.469;-498.626;-41.667;-0.5647;0.1984;114.316
42.500.000;-469.933;-29.457;0.5037;11.752;98.443
42.519.531;-443.987;-17.247;13.889;14.194;84.707
42.539.063;-420.788;-0.6258;22.131;14.194;75.244
42.558.594;-400.336;0.3816;30.067;16.941;78.297
42.578.125;-378.663;14.499;37.698;24.573;88.980
42.597.656;-352.106;26.099;44.719;34.951;95.391
42.617.188;-322.497;36.783;48.687;42.277;99.359
42.636.719;-294.109;42.277;46.551;39.225;108.822
42.656.250;-270.299;41.972;38.614;23.962;114.316
42.675.781;-248.932;38.614;27.625;0.1068;114.316
42.695.313;-226.648;35.562;15.110;-23.657;119.200
42.714.844;-203.144;33.730;0.3510;-45.635;112.485
42.734.375;-181.471;33.425;-0.6563;-60.592;99.969
42.753.906;-163.156;33.120;-14.805;-69.444;121.337
42.773.438;-146.978;34.646;-18.162;-72.192;177.503
42.792.969;-129.579;39.225;-15.720;-67.308;232.753
42.812.500;-112.179;45.635;-10.531;-58.455;267.857
42.832.031;-96.306;52.045;-0.3816;-50.519;295.330
42.851.563;-80.739;57.234;0.3205;-44.109;333.486
42.871.094;-65.476;61.203;10.226;-39.225;378.358
42.890.625;-49.908;64.560;18.162;-34.646;419.567
42.910.156;-30.067;67.918;27.625;-29.762;453.755
42.929.688;-0.5037;72.192;38.309;-25.183;464.438
42.949.219;21.520;77.076;48.993;-21.215;429.029
42.968.750;44.414;81.044;58.150;-17.857;351.496
42.988.281;61.813;83.791;64.866;-16.941;272.131
43.007.813;76.160;86.844;70.055;-17.857;222.680
43.027.344;91.422;91.117;75.244;-19.078;205.281
43.046.875;110.958;96.612;80.433;-19.994;227.869
43.066.406;133.242;102.106;83.181;-21.520;281.288
43.085.938;153.388;105.769;81.654;-25.488;320.971
43.105.469;169.872;107.601;75.244;-30.678;318.223
43.125.000;183.913;107.906;66.697;-37.088;293.498
43.144.531;192.460;105.769;57.845;-44.414;279.151
43.164.063;191.545;102.106;49.908;-49.298;291.056
43.183.594;181.471;98.443;43.498;-49.298;320.665
43.203.125;168.651;96.306;39.225;-44.719;335.623
43.222.656;161.630;97.222;38.919;-38.614;335.317
43.242.188;164.072;100.885;42.888;-33.425;340.812
43.261.719;173.840;106.380;50.519;-31.288;336.233
43.281.250;186.966;111.874;59.676;-31.593;311.508
43.300.781;201.313;115.842;68.529;-32.814;286.477
43.320.313;216.575;116.758;76.465;-33.425;271.215
43.339.844;235.195;116.453;83.486;-32.204;274.267
43.359.375;258.089;117.063;89.896;-29.457;276.709
43.378.906;283.730;118.284;94.475;-25.794;244.963
43.398.438;307.845;120.421;97.527;-22.741;207.112
43.417.969;330.128;124.695;98.748;-21.520;198.565
43.437.500;352.717;130.495;98.748;-23.352;195.208
43.457.031;377.442;136.905;99.054;-27.015;173.230
43.476.563;402.473;143.315;100.275;-30.678;147.894
43.496.094;419.872;148.810;101.190;-34.646;137.515
43.515.625;425.366;151.557;99.664;-38.309;133.547
43.535.156;423.535;152.167;96.001;-40.751;115.842
43.554.688;420.177;151.862;90.507;-41.361;82.570
43.574.219;416.819;151.862;84.402;-40.446;56.013
43.593.750;411.630;151.557;78.297;-38.004;47.161
43.613.281;402.167;150.641;71.886;-32.814;37.393
43.632.813;388.736;150.031;65.781;-24.573;-15.110
43.652.344;373.779;151.557;60.287;-12.973;-105.769
43.671.875;362.179;156.441;56.013;-0.1068;-151.862
43.691.406;356.685;164.072;52.656;0.8700;-121.642
43.710.938;355.769;173.230;50.519;14.499;-50.824
43.730.469;357.295;183.913;51.435;15.415;48.077
43.750.000;362.485;193.987;54.487;12.057;165.293
43.769.531;372.558;202.534;59.676;0.6258;273.962
43.789.063;386.905;210.470;66.697;0.1984;355.769
43.808.594;402.167;217.186;75.855;0.0153;399.420
43.828.125;413.156;219.933;84.096;-0.1374;416.514
43.847.656;417.125;216.270;89.591;-0.2595;433.608
43.867.188;415.598;208.028;94.475;0.2289;453.755
43.886.719;411.325;198.260;100.275;18.162;447.955
43.906.250;408.883;189.408;106.380;40.751;378.968
43.925.781;411.020;181.471;111.264;65.171;271.215
43.945.313;417.430;175.977;113.400;87.454;210.165
43.964.844;427.198;172.314;111.264;104.853;219.322
43.984.375;438.187;169.567;105.159;115.232;258.700
44.003.906;445.818;166.514;96.612;117.674;303.266
44.023.438;449.481;164.072;88.065;117.063;331.349
44.042.969;451.618;163.767;81.349;116.453;332.570
44.062.500;452.228;166.209;78.297;118.590;325.244
44.082.031;451.007;171.703;80.128;124.389;327.381
44.101.563;447.955;179.945;84.096;129.884;346.612
44.121.094;441.850;188.492;86.538;127.442;367.674
44.140.625;429.640;194.292;84.402;109.432;359.127
44.160.156;413.462;196.123;76.465;77.076;303.266
44.179.688;398.199;197.039;66.392;41.667;216.575
44.199.219;387.210;197.955;56.624;11.142;138.736
44.218.750;378.968;197.650;45.024;-20.910;81.654
44.238.281;371.032;193.987;28.541;-60.287;44.414
44.257.813;364.316;187.882;10.226;-96.612;40.751
44.277.344;360.653;181.166;-0.5037;-119.200;58.150
44.296.875;360.043;173.535;-16.636;-127.747;71.886
44.316.406;361.569;164.683;-24.878;-127.442;77.991
44.335.938;363.706;154.609;-33.120;-125.611;70.665
44.355.469;365.232;143.010;-43.193;-126.221;56.319
44.375.000;364.316;132.021;-53.266;-123.474;55.098
44.394.531;360.958;124.389;-59.371;-110.043;58.761
44.414.063;355.769;120.726;-62.118;-87.759;64.560
44.433.594;348.138;117.979;-63.950;-63.034;91.728
44.453.125;337.759;114.011;-65.171;-36.783;136.600
44.472.656;323.413;108.822;-63.950;-0.8089;164.377
44.492.188;305.403;103.632;-60.287;20.299;172.314
44.511.719;285.256;99.054;-55.403;47.161;197.955
44.531.250;263.278;95.085;-48.687;71.886;236.722
44.550.781;242.521;92.643;-38.919;93.559;260.531
44.570.313;224.206;92.949;-26.709;110.653;273.046
44.589.844;209.249;96.612;-13.584;121.337;281.288
44.609.375;196.734;102.717;-0.0763;125.916;273.046
44.628.906;186.661;110.348;12.057;126.221;251.984
44.648.438;178.419;119.200;25.488;123.474;237.027
44.667.969;172.924;129.884;38.919;119.200;220.238
44.687.500;171.093;141.178;50.519;112.179;201.618
44.707.031;172.009;152.778;56.929;99.359;186.661
44.726.563;172.924;161.325;56.624;77.991;150.336
44.746.094;174.451;165.293;52.656;52.350;89.591
44.765.625;178.419;165.904;47.466;29.151;38.004
44.785.156;184.829;163.156;41.667;12.668;14.499
44.804.688;193.071;157.662;35.867;0.2900;22.741
44.824.219;200.092;150.031;29.457;-0.4426;38.004
44.843.750;203.449;140.568;21.215;-16.026;16.026
44.863.281;203.144;130.800;10.836;-34.035;-37.393
44.882.813;199.786;121.642;-0.0458;-56.929;-73.107
44.902.344;193.376;113.400;-13.278;-82.875;-84.096
44.921.875;184.219;105.464;-24.878;-107.601;-106.380
44.941.406;173.535;99.054;-33.730;-129.579;-159.799
44.960.938;161.630;93.254;-41.056;-148.504;-222.070
44.980.469;150.336;88.675;-45.940;-161.325;-250.763
45.000.000;141.178;87.149;-45.635;-161.020;-235.806
45.019.531;133.852;88.675;-41.972;-146.368;-193.987
45.039.063;126.221;89.896;-38.614;-125.916;-143.315
45.058.594;116.148;89.286;-38.004;-110.043;-97.833
45.078.125;103.632;88.065;-38.614;-102.106;-56.624
45.097.656;89.286;87.759;-37.698;-97.222;-12.973
45.117.188;73.413;88.065;-33.425;-89.591;28.236
45.136.719;57.540;89.286;-26.099;-76.465;54.182
45.156.250;44.414;92.949;-15.110;-56.013;63.645
45.175.781;32.509;99.359;-0.2289;-30.372;70.971
45.195.313;19.994;105.159;0.9921;-0.6563;67.002
45.214.844;0.6563;108.211;21.520;10.836;48.077
45.234.375;-0.5952;109.737;31.899;24.573;30.983
45.253.906;-16.026;110.958;40.751;34.951;15.720
45.273.438;-23.352;110.348;48.382;42.582;0.8089
45.292.969;-29.457;107.906;55.098;49.603;10.226
45.312.500;-36.477;103.632;60.287;56.319;12.973
45.332.031;-44.109;96.612;64.866;62.424;18.468
45.351.563;-51.435;86.538;68.834;67.613;22.436
45.371.094;-58.150;75.549;72.497;74.023;0.6868
45.390.625;-61.813;66.697;74.939;83.486;-34.341
45.410.156;-62.424;58.455;74.939;93.254;-86.844
45.429.688;-63.950;48.687;70.971;98.138;-123.779
45.449.219;-70.971;38.309;62.424;96.001;-127.442
45.468.750;-84.707;27.930;50.824;86.538;-109.432
45.488.281;-103.327;16.636;38.004;69.750;-92.643
45.507.813;-125.305;0.5037;25.488;48.382;-72.497
45.527.344;-149.725;-0.5647;15.110;27.015;-39.835
45.546.875;-176.587;-14.805;0.6563;0.7479;-19.383
45.566.406;-204.670;-22.131;-0.0153;-11.447;-27.320
45.585.938;-233.059;-28.846;-0.5647;-29.151;-38.919
45.605.469;-262.363;-34.341;-0.9921;-42.888;-47.772
45.625.000;-291.056;-38.004;-13.584;-52.045;-72.192
45.644.531;-316.392;-39.225;-16.026;-56.624;-103.632
45.664.063;-337.149;-38.309;-16.331;-57.234;-131.716
45.683.594;-353.938;-35.256;-16.331;-55.098;-171.093
45.703.125;-365.232;-30.372;-15.110;-48.993;-224.817
45.722.656;-369.200;-22.741;-12.668;-37.698;-266.941
45.742.188;-366.453;-12.363;-0.9921;-24.878;-279.457
45.761.719;-361.569;-0.3510;-0.9310;-15.415;-273.657
45.781.250;-362.179;0.0153;-10.226;-10.226;-261.142
45.800.781;-375.611;-0.1679;-11.447;-0.5647;-240.690
45.820.313;-403.388;-10.531;-12.668;0.1374;-230.006
45.839.844;-440.018;-25.794;-13.278;10.531;-240.690
45.859.375;-472.375;-43.193;-12.668;19.689;-244.963
45.878.906;-490.995;-57.540;-10.226;29.457;-227.564
45.898.438;-494.963;-66.392;-0.5647;42.888;-211.386
45.917.969;-492.216;-71.581;0.1068;61.813;-218.101
45.937.500;-489.469;-74.023;10.836;85.928;-234.890
45.957.031;-487.637;-73.107;21.520;113.400;-235.501
45.976.563;-483.669;-69.444;30.678;135.684;-216.575
45.996.094;-475.733;-63.950;34.951;140.263;-186.050
46.015.625;-463.217;-56.929;34.646;125.916;-147.283
46.035.156;-447.650;-47.161;34.951;107.295;-95.391
46.054.688;-430.250;-34.951;39.530;95.696;-41.056
46.074.219;-411.630;-21.520;47.466;89.591;-12.057
46.093.750;-391.178;-0.8700;56.624;86.844;-0.0763
46.113.281;-366.758;0.2595;65.476;87.454;23.046
46.132.813;-339.591;12.973;73.718;90.507;72.192
46.152.344;-309.676;23.046;82.265;98.748;136.600
46.171.875;-276.404;32.204;90.201;109.737;190.324
46.191.406;-240.995;40.140;96.306;117.369;197.955
46.210.938;-206.197;46.551;100.275;121.642;151.862
46.230.469;-173.840;51.435;102.411;125.305;101.801
46.250.000;-145.147;54.487;102.106;125.611;93.559
46.269.531;-119.811;54.487;96.917;116.453;125.000
46.289.063;-99.054;51.740;86.538;98.138;167.430
46.308.594;-81.960;47.161;74.634;78.907;194.292
46.328.125;-67.918;41.667;64.255;64.255;201.313
46.347.656;-56.319;37.393;57.234;56.624;202.839
46.367.188;-45.330;37.088;52.045;53.571;212.302
46.386.719;-31.593;40.446;48.687;52.350;221.764
46.406.250;-12.973;46.245;46.856;53.266;217.491
46.425.781;0.9310;52.961;48.687;60.287;208.028
46.445.313;33.730;59.676;53.571;71.276;197.955
46.464.844;55.403;64.560;57.845;79.518;184.829
46.484.375;72.192;67.002;59.066;79.212;180.861
46.503.906;84.096;67.002;56.624;67.613;192.766
46.523.438;92.949;67.613;52.961;50.214;201.007
46.542.969;101.801;72.192;52.961;40.751;191.545
46.562.500;114.927;81.349;58.761;44.719;171.398
46.582.031;132.937;92.338;67.613;55.708;136.600
46.601.563;153.694;103.022;75.855;63.339;101.801
46.621.094;175.366;112.179;80.739;63.034;92.033
46.640.625;195.818;118.895;83.486;58.761;91.422
46.660.156;212.302;123.474;85.623;54.792;92.033
46.679.688;226.343;126.221;85.623;51.129;113.095
46.699.219;237.637;127.442;81.960;47.466;139.042
46.718.750;243.437;125.916;74.328;40.751;149.420
46.738.281;242.521;120.726;64.255;27.930;158.883
46.757.813;236.416;112.179;54.182;13.584;167.735
46.777.344;228.175;101.190;45.635;0.0458;166.514
46.796.875;221.154;89.286;38.309;-12.668;172.619
46.816.406;216.270;78.602;33.425;-24.267;188.187
46.835.938;214.438;70.971;32.204;-28.236;190.629
46.855.469;215.049;66.697;34.035;-21.520;180.861
46.875.000;215.354;65.171;37.088;-0.4731;152.473
46.894.531;213.523;65.171;40.751;18.162;85.317
46.914.063;209.554;64.560;44.719;41.972;12.973
46.933.594;205.281;62.424;47.772;58.455;-16.026
46.953.125;201.313;58.455;48.993;67.002;-0.6868
46.972.656;199.786;54.487;48.993;73.718;0.0458
46.992.188;200.702;51.435;49.908;82.570;-11.447
47.011.719;202.839;51.129;51.435;91.422;-26.709
47.031.250;205.891;51.435;52.350;97.527;-29.762
47.050.781;210.165;51.740;52.656;102.717;-30.983
47.070.313;215.659;51.435;51.740;105.769;-59.371
47.089.844;219.628;48.993;47.772;100.885;-112.179
47.109.375;220.849;43.803;42.582;86.233;-133.242
47.128.906;219.933;39.225;38.614;68.834;-93.559
47.148.438;218.101;35.867;37.393;53.877;-31.899
47.167.969;214.744;34.035;38.614;43.193;0.8089
47.187.500;208.944;33.425;39.530;36.172;35.562
47.207.031;200.702;34.035;39.225;35.562;72.192
47.226.563;191.545;35.867;41.667;47.161;97.222
47.246.094;184.524;39.835;48.382;71.886;82.265
47.265.625;182.082;47.161;58.761;104.853;48.687
47.285.156;182.692;55.708;68.529;136.600;27.015
47.304.688;183.303;61.508;73.413;154.304;16.026
47.324.219;181.471;62.729;71.581;154.609;11.752
47.343.750;178.114;61.203;66.697;146.368;0.5037
47.363.281;174.756;58.761;60.897;140.568;-15.110
47.382.813;174.145;56.929;55.708;142.094;-34.646
47.402.344;176.893;56.319;51.129;149.725;-34.341
47.421.875;182.387;56.624;47.772;159.799;-22.436
47.441.406;187.271;56.319;43.803;164.988;-17.857
47.460.938;187.882;55.098;37.393;157.357;-26.709
47.480.469;183.608;53.266;30.067;138.736;-35.867
47.500.000;175.366;51.129;24.573;118.284;-29.762
47.519.531;166.819;49.603;21.215;101.801;-10.836
47.539.063;160.409;49.298;19.994;92.338;14.499
47.558.594;157.051;51.435;21.825;91.422;34.951
47.578.125;154.609;54.792;23.962;94.475;51.129
47.597.656;152.473;57.845;25.488;99.969;70.665
47.617.188;150.031;60.287;27.625;110.653;85.317
47.636.719;146.673;60.897;29.762;121.337;83.181
47.656.250;140.263;59.066;28.236;119.505;56.319
47.675.781;131.105;55.403;23.962;105.769;32.814
47.695.313;122.863;52.350;20.299;88.675;60.287
47.714.844;118.590;49.298;16.026;67.002;125.611
47.734.375;117.369;45.940;0.8394;36.477;179.640
47.753.906;117.674;42.888;-0.1374;0.3816;218.712
47.773.438;119.811;41.667;-0.8700;-17.857;260.226
47.792.969;122.863;42.582;-0.9005;-23.657;294.414
47.812.500;125.916;44.414;-0.5037;-19.994;304.487
47.832.031;128.053;45.940;-0.0153;-17.247;286.783
47.851.563;129.884;45.635;0.1068;-22.131;257.479
47.871.094;131.716;42.277;-0.1679;-33.425;230.922
47.890.625;133.242;36.783;-0.7479;-44.719;200.092
47.910.156;133.852;30.678;-13.278;-51.129;156.746
47.929.688;133.852;23.962;-18.162;-53.571;113.706
47.949.219;132.326;16.636;-23.657;-57.845;84.096
47.968.750;127.137;0.9310;-30.678;-68.529;56.013
47.988.281;120.116;0.5342;-37.088;-78.602;0.3510
48.007.813;114.316;0.6868;-38.309;-75.855;-86.233
48.027.344;111.874;12.668;-31.593;-52.961;-188.492
48.046.875;112.790;19.994;-20.299;-14.499;-239.774
48.066.406;114.621;27.015;-0.9921;25.488;-215.965
48.085.938;115.842;33.730;-0.1984;58.150;-166.819
48.105.469;113.706;38.919;0.4121;80.433;-143.010
48.125.000;109.737;42.277;10.531;95.391;-143.315
48.144.531;105.464;45.330;18.468;108.211;-157.051
48.164.063;102.411;46.856;23.962;113.095;-182.998
48.183.594;97.527;44.719;19.994;96.917;-196.123
48.203.125;87.149;38.004;0.6868;62.729;-182.692
48.222.656;73.413;27.625;-0.7784;26.404;-162.851
48.242.188;59.371;15.415;-18.468;0.1984;-133.242
48.261.719;48.687;0.5342;-20.604;-0.1679;-88.980
48.281.250;42.582;0.0763;-14.499;15.720;-46.551
48.300.781;41.361;0.0763;-0.3205;45.635;-11.752
48.320.313;43.193;0.2289;0.8394;73.413;0.5952
48.339.844;43.803;0.2595;15.110;89.896;-0.5342
48.359.375;42.582;0.2289;14.805;94.475;-35.562
48.378.906;40.140;0.1984;11.447;92.949;-62.729
48.398.438;37.393;0.1374;0.8089;87.454;-66.087
48.417.969;33.120;-0.0153;0.1679;74.634;-38.919
48.437.500;26.709;-0.1984;-0.8089;55.098;0.3510
48.457.031;19.078;-0.3205;-20.910;30.372;43.803
48.476.563;11.447;-0.4426;-34.341;0.3205;69.444
48.496.094;0.3510;-0.4731;-43.803;-16.941;76.465
48.515.625;-0.2595;-0.3205;-46.856;-24.267;68.223
48.535.156;-0.6258;-0.1374;-45.024;-18.773;47.772
48.554.688;-0.9005;-0.0153;-41.056;-0.3510;14.499
48.574.219;-10.836;0.0153;-36.783;17.552;-21.825
48.593.750;-13.584;-0.1068;-33.730;37.393;-43.498
48.613.281;-17.857;-0.4121;-32.204;48.993;-58.761
48.632.813;-22.436;-0.9005;-31.899;52.045;-70.360
48.652.344;-25.794;-14.194;-33.425;45.940;-63.950
48.671.875;-27.625;-18.773;-38.004;30.372;-70.971
48.691.406;-30.372;-21.215;-43.498;10.531;-119.200
48.710.938;-34.951;-22.131;-48.687;-0.7479;-168.651
48.730.469;-39.225;-20.604;-50.824;-19.689;-172.924
48.750.000;-42.582;-16.941;-49.603;-26.404;-135.379
48.769.531;-47.161;-12.057;-46.245;-30.678;-90.201
48.789.063;-53.877;-0.5952;-41.056;-30.372;-58.455
48.808.594;-59.676;0.1679;-31.899;-17.857;-43.498
48.828.125;-62.729;11.447;-17.857;10.836;-58.150
48.847.656;-64.560;20.299;-0.3816;44.414;-96.917
48.867.188;-68.529;23.352;0.1068;58.761;-125.000
48.886.719;-74.328;19.383;-0.4121;47.161;-128.358
48.906.250;-79.823;12.363;-14.194;28.541;-116.148
48.925.781;-84.096;0.6563;-23.352;19.078;-91.117
48.945.313;-89.591;0.2289;-31.899;16.331;-49.908
48.964.844;-96.917;-0.2595;-41.667;12.363;-0.3816
48.984.375;-103.022;-0.9005;-52.961;0.4426;32.509
49.003.906;-106.685;-14.194;-62.424;-0.6563;57.234
49.023.438;-106.380;-16.026;-67.918;-19.994;69.444
49.042.969;-99.664;-13.278;-69.444;-30.372;66.392
49.062.500;-86.844;-0.4426;-66.087;-31.288;52.045
49.082.031;-71.276;0.8700;-59.066;-19.994;29.762
49.101.563;-61.508;21.215;-50.214;0.0153;0.2595
49.121.094;-64.255;27.930;-42.888;25.794;-32.509
49.140.625;-79.518;27.015;-39.835;50.519;-97.527
49.160.156;-99.664;21.215;-39.835;70.665;-176.893
49.179.688;-114.927;15.415;-41.361;85.317;-212.607
49.199.219;-120.116;12.057;-43.193;92.643;-180.861
49.218.750;-117.369;10.226;-45.330;89.896;-108.211
49.238.281;-112.485;0.9005;-48.382;76.770;-29.457
49.257.813;-110.348;0.7173;-50.519;59.676;22.436
49.277.344;-110.653;0.7173;-48.382;51.740;35.562
49.296.875;-109.127;10.226;-40.446;57.845;32.204
49.316.406;-101.190;16.331;-30.678;67.002;49.298
49.335.938;-87.149;23.352;-22.436;70.055;101.801
49.355.469;-71.581;29.151;-15.720;67.308;161.935
49.375.000;-60.287;31.288;-11.752;57.845;200.397
49.394.531;-56.013;29.151;-11.752;40.751;231.227
49.414.063;-57.234;23.962;-15.415;20.604;265.720
49.433.594;-59.066;17.552;-19.994;0.3510;275.183
49.453.125;-59.371;12.668;-24.267;-0.7173;244.963
49.472.656;-56.929;0.9615;-26.099;-11.752;190.018
49.492.188;-52.656;0.7479;-26.404;-11.752;137.821
49.511.719;-48.077;0.5647;-25.794;-0.9310;103.632
49.531.250;-44.414;0.3816;-26.404;-0.5952;82.570
49.550.781;-41.361;0.0458;-32.204;-0.9005;88.980
49.570.313;-39.530;-0.5037;-45.024;-29.457;120.726
49.589.844;-38.614;-13.278;-59.676;-63.950;139.347
49.609.375;-37.698;-20.299;-69.444;-96.612;129.884
49.628.906;-36.477;-22.741;-73.107;-116.453;110.043
49.648.438;-35.562;-21.520;-74.023;-125.305;110.958
49.667.969;-36.172;-19.078;-74.328;-128.053;141.178
49.687.500;-36.783;-16.331;-71.276;-121.337;170.482
49.707.031;-36.172;-12.973;-63.339;-103.632;176.282
49.726.563;-34.035;-0.9615;-52.350;-80.433;156.136
49.746.094;-32.204;-0.7173;-41.056;-57.540;105.159
49.765.625;-31.593;-0.5952;-31.288;-38.309;28.236
49.785.156;-31.899;-0.7784;-25.488;-27.930;-57.845
49.804.688;-33.730;-12.363;-26.404;-32.509;-135.073
49.824.219;-38.004;-18.773;-32.814;-46.856;-186.966
49.843.750;-43.498;-26.099;-40.446;-59.066;-219.017
49.863.281;-48.687;-33.730;-47.466;-66.697;-258.089
49.882.813;-51.435;-41.056;-53.266;-72.497;-320.665
49.902.344;-51.129;-46.551;-56.319;-75.244;-383.547
49.921.875;-48.687;-47.772;-57.234;-75.855;-412.241
49.941.406;-45.940;-44.719;-56.624;-75.244;-423.230
49.960.938;-41.667;-38.309;-51.129;-67.002;-447.039
49.980.469;-35.256;-29.762;-39.530;-48.687;-479.090
50.000.000;-46.551;0.1984;-28.236;-19.078;-524.573
50.019.531;-43.193;10.226;-17.552;-0.4121;-506.563
50.039.063;-42.888;16.941;-12.363;-0.1068;-446.123
50.058.594;-45.330;21.825;-10.226;-0.5647;-353.022
50.078.125;-49.298;26.404;-10.836;-12.057;-261.447
50.097.656;-53.571;29.762;-14.499;-18.468;-201.618
50.117.188;-57.234;31.593;-20.910;-27.015;-169.261
50.136.719;-59.982;31.288;-28.846;-41.056;-161.020
50.156.250;-63.034;27.930;-36.477;-59.982;-175.672
50.175.781;-66.087;23.046;-44.109;-80.128;-198.260
50.195.313;-67.918;18.468;-50.824;-97.222;-209.860
50.214.844;-68.223;16.941;-54.792;-104.548;-193.376
50.234.375;-70.055;18.468;-53.877;-98.443;-159.799
50.253.906;-74.939;22.436;-48.687;-83.181;-128.053
50.273.438;-81.960;28.846;-42.582;-67.918;-128.358
50.292.969;-88.065;35.867;-37.698;-54.182;-191.850
50.312.500;-92.033;43.803;-34.035;-38.309;-269.689
50.332.031;-95.085;51.129;-30.067;-20.910;-311.203
50.351.563;-99.664;57.234;-27.625;-0.7784;-335.928
50.371.094;-104.548;62.118;-27.015;-0.1068;-362.790
50.390.625;-108.822;65.781;-27.320;0.0153;-391.483
50.410.156;-114.011;66.697;-29.457;-0.4426;-414.988
50.429.688;-122.253;63.645;-36.172;-17.857;-437.271
50.449.219;-132.021;56.929;-45.024;-35.867;-465.659
50.468.750;-139.347;49.603;-51.740;-49.298;-477.259
50.488.281;-143.620;42.582;-56.319;-54.487;-455.281
50.507.813;-146.673;35.867;-61.813;-56.929;-441.850
50.527.344;-149.725;29.457;-68.529;-62.729;-487.027
50.546.875;-150.641;25.488;-74.023;-64.255;-553.266
50.566.406;-146.978;24.878;-77.076;-50.824;-545.024
50.585.938;-139.652;27.015;-79.212;-25.183;-448.565
50.605.469;-132.937;30.067;-83.791;0.0153;-334.402
50.625.000;-131.410;29.762;-91.728;11.752;-240.385
50.644.531;-134.463;25.794;-100.275;0.8700;-170.482
50.664.063;-139.957;19.383;-106.074;-0.5037;-142.399
50.683.594;-147.283;12.363;-107.906;-23.657;-153.083
50.703.125;-156.136;0.6563;-106.990;-41.361;-167.125
50.722.656;-164.988;0.4731;-101.801;-54.182;-156.136
50.742.188;-172.314;0.6563;-90.812;-58.455;-127.747
50.761.719;-179.640;10.531;-76.770;-51.740;-88.675
50.781.250;-188.797;15.110;-65.171;-42.277;-31.899
50.800.781;-199.176;17.857;-58.455;-38.919;0.8394
50.820.313;-208.944;18.468;-54.792;-39.530;-12.668
50.839.844;-218.101;18.162;-52.350;-38.614;-112.790
50.859.375;-225.122;17.857;-52.350;-38.919;-299.603
50.878.906;-229.090;17.857;-55.098;-45.940;-472.070
50.898.438;-229.090;18.468;-59.066;-59.676;-483.669
50.917.969;-227.564;18.468;-64.255;-74.328;-372.863
50.937.500;-227.564;16.026;-71.276;-90.201;-250.458
50.957.031;-229.701;11.142;-81.044;-109.432;-147.589
50.976.563;-232.753;0.5037;-92.033;-128.663;-93.254
50.996.094;-237.637;-0.0153;-101.801;-140.568;-103.632
51.015.625;-243.132;-0.3816;-109.127;-140.568;-134.158
51.035.156;-245.879;-0.5037;-112.179;-131.105;-131.410
51.054.688;-244.658;-0.5647;-110.653;-118.895;-85.928
51.074.219;-241.911;-0.6563;-105.159;-106.685;-27.015
51.093.750;-240.995;-0.6258;-95.696;-92.949;0.6868
51.113.281;-241.300;-0.2900;-84.707;-80.433;0.0458
51.132.813;-241.300;-0.0153;-75.855;-73.413;-59.066
51.152.344;-241.300;0.0153;-69.444;-71.276;-181.777
51.171.875;-242.521;-0.0153;-63.950;-74.328;-294.109
51.191.406;-244.963;-0.1679;-58.761;-82.265;-312.118
51.210.938;-248.016;-0.4121;-55.098;-94.475;-273.657
51.230.469;-250.763;-0.7173;-55.403;-113.706;-258.700
51.250.000;-251.068;-10.531;-57.845;-135.684;-279.151
51.269.531;-249.237;-12.057;-60.897;-150.641;-295.635
51.289.063;-246.490;-11.142;-63.339;-151.252;-276.709
51.308.594;-243.742;-0.8394;-64.560;-139.042;-239.469
51.328.125;-240.995;-0.5342;-66.392;-123.779;-226.038
51.347.656;-238.858;-0.5037;-70.360;-116.148;-225.427
51.367.188;-238.858;-0.7784;-76.160;-115.537;-198.871
51.386.719;-240.385;-12.668;-78.297;-113.400;-153.694
51.406.250;-241.911;-17.247;-74.939;-104.243;-110.348
51.425.781;-242.521;-19.994;-69.139;-87.149;-63.645
51.445.313;-242.521;-21.520;-63.950;-65.781;-0.9921
51.464.844;-245.269;-23.657;-62.424;-52.045;38.004
51.484.375;-253.816;-27.625;-66.087;-51.435;64.866
51.503.906;-267.247;-33.120;-70.971;-57.234;68.529
51.523.438;-281.593;-39.530;-72.802;-61.203;56.319
51.542.969;-292.277;-44.414;-70.971;-58.455;32.204
51.562.500;-296.856;-45.635;-67.002;-48.382;-11.142
51.582.031;-298.687;-43.193;-64.255;-36.783;-81.654
51.601.563;-299.908;-39.530;-64.866;-29.151;-167.735
51.621.094;-299.908;-37.698;-69.444;-27.320;-251.068
51.640.625;-300.214;-36.477;-76.465;-28.236;-308.455
51.660.156;-304.182;-34.341;-85.623;-30.067;-326.160
51.679.688;-310.897;-32.204;-96.612;-35.562;-324.328
51.699.219;-317.613;-31.288;-106.380;-42.582;-313.645
51.718.750;-322.802;-34.035;-111.569;-46.551;-269.383
51.738.281;-325.855;-38.919;-112.485;-48.077;-182.082
51.757.813;-319.750;-44.109;-111.569;-49.908;-80.128
51.777.344;-294.414;-48.382;-109.737;-52.045;0.6563
51.796.875;-262.973;-52.656;-106.990;-52.656;51.129
51.816.406;-251.068;-57.234;-103.632;-51.129;50.519
51.835.938;-262.363;-61.813;-99.054;-49.603;47.772
51.855.469;-287.088;-66.087;-93.559;-48.382;63.339
51.875.000;-317.918;-69.444;-88.980;-48.382;72.802
51.894.531;-345.391;-74.328;-88.065;-49.298;61.203
51.914.063;-356.380;-83.791;-90.507;-49.298;26.099
51.933.594;-349.054;-95.391;-92.949;-47.466;-35.562
51.953.125;-339.591;-104.853;-92.949;-43.803;-101.801
51.972.656;-342.338;-108.822;-88.370;-36.172;-154.915
51.992.188;-355.769;-106.380;-79.518;-23.657;-208.639
52.011.719;-371.947;-99.969;-69.139;-0.9310;-247.711
52.031.250;-382.937;-92.643;-58.455;0.4426;-233.059
52.050.781;-387.210;-86.844;-49.908;14.805;-176.893
52.070.313;-389.347;-84.096;-46.245;14.194;-138.431
52.089.844;-392.094;-85.928;-47.772;0.2595;-153.388
52.109.375;-393.315;-92.338;-51.129;-12.668;-201.923
52.128.906;-394.841;-99.359;-54.792;-28.541;-237.027
52.148.438;-400.031;-100.885;-56.013;-38.309;-237.943
52.167.969;-406.746;-95.696;-53.571;-34.951;-213.828
52.187.500;-413.462;-88.980;-50.519;-25.794;-165.293
52.207.031;-421.703;-83.181;-51.129;-24.573;-86.538
52.226.563;-429.029;-81.044;-56.319;-35.256;0.1374
52.246.094;-429.640;-86.538;-63.034;-49.603;67.613
52.265.625;-420.482;-99.359;-68.223;-59.982;114.011
52.285.156;-396.368;-114.011;-70.055;-63.645;161.630
52.304.688;-362.485;-125.000;-70.360;-63.339;217.491
52.324.219;-346.612;-130.189;-68.834;-60.897;266.636
52.343.750;-361.874;-129.884;-65.781;-56.013;281.593
52.363.281;-390.263;-126.526;-62.424;-47.772;245.269
52.382.813;-418.346;-123.474;-59.982;-41.972;175.977
52.402.344;-445.208;-122.863;-59.982;-44.109;93.864
52.421.875;-472.985;-124.389;-62.424;-51.435;-0.9005
52.441.406;-500.763;-128.053;-66.087;-58.761;-111.569
52.460.938;-517.552;-132.326;-70.665;-65.476;-161.935
52.480.469;-509.005;-136.294;-75.244;-71.886;-152.778
52.500.000;-490.079;-140.263;-79.518;-78.602;-117.979
52.519.531;-485.501;-146.368;-85.317;-87.454;-96.306
52.539.063;-477.869;-156.746;-92.643;-95.696;-114.621
52.558.594;-439.713;-172.009;-99.359;-99.054;-182.387
52.578.125;-400.641;-189.103;-102.717;-92.643;-281.593
52.597.656;-400.336;-203.755;-102.411;-76.465;-371.947
52.617.188;-432.082;-215.965;-100.885;-60.897;-421.398
52.636.719;-465.049;-231.227;-103.327;-59.982;-465.659
52.656.250;-461.691;-255.037;-111.264;-74.634;-561.203
52.675.781;-401.252;-286.172;-121.642;-96.612;-657.967
52.695.313;-310.897;-319.444;-132.326;-116.758;-676.587
52.714.844;-239.774;-349.664;-142.399;-132.021;-619.506
52.734.375;-206.502;-373.779;-151.862;-145.757;-517.247
52.753.906;-199.786;-392.399;-160.104;-158.883;-407.967
52.773.438;-189.408;-413.767;-168.040;-171.703;-339.286
52.792.969;-111.264;-454.670;-178.419;-184.219;-323.413
52.812.500;53.266;-513.584;-191.239;-192.460;-340.812
52.832.031;192.460;-555.708;-197.039;-186.661;-397.894
52.851.563;193.071;-550.214;-187.882;-164.072;-492.827
52.871.094;63.034;-501.068;-164.988;-132.631;-568.529
52.890.625;-130.495;-430.556;-136.294;-104.243;-608.517
52.910.156;-312.729;-360.653;-110.348;-89.286;-639.652
52.929.688;-432.692;-306.013;-92.033;-90.507;-651.252
52.949.219;-505.647;-271.215;-81.654;-101.496;-634.463
52.968.750;-569.139;-253.816;-76.160;-114.011;-573.718
52.988.281;-612.485;-246.490;-71.581;-121.642;-451.007
53.007.813;-572.497;-249.237;-67.918;-125.916;-302.961
53.027.344;-429.945;-264.805;-68.834;-131.716;-187.576
53.046.875;-291.667;-283.120;-72.497;-135.073;-112.179
53.066.406;-280.067;-288.614;-70.360;-128.358;-60.592
53.085.938;-386.905;-278.541;-59.371;-106.685;-45.330
53.105.469;-514.499;-266.026;-42.582;-69.444;-73.413
53.125.000;-563.339;-266.636;-27.625;-23.657;-125.916
53.144.531;-498.016;-286.172;-20.604;12.363;-202.228
53.164.063;-414.072;-308.761;-23.352;24.267;-302.350
53.183.594;-427.808;-313.339;-32.509;0.7784;-367.063
53.203.125;-542.582;-297.466;-42.582;-26.099;-357.601
53.222.656;-689.103;-271.215;-48.993;-61.203;-301.435
53.242.188;-804.487;-244.353;-51.435;-86.844;-238.248
53.261.719;-862.179;-220.543;-50.519;-99.969;-190.324
53.281.250;-878.663;-198.871;-47.466;-102.106;-146.978
53.300.781;-888.126;-178.724;-44.109;-100.580;-96.306
53.320.313;-899.725;-159.493;-40.140;-103.327;-52.961
53.339.844;-903.999;-141.178;-34.035;-110.043;-34.646
53.359.375;-897.894;-123.168;-26.404;-116.758;-43.803
53.378.906;-883.547;-108.516;-20.910;-121.642;-54.792
53.398.438;-863.400;-100.885;-21.215;-127.747;-51.435
53.417.969;-832.570;-99.054;-27.015;-136.905;-48.077
53.437.500;-769.689;-103.022;-36.783;-147.589;-46.551
53.457.031;-671.093;-114.621;-46.856;-156.746;-44.109
53.476.563;-570.055;-132.326;-53.266;-162.546;-69.750
53.496.094;-492.216;-150.336;-59.676;-169.261;-133.852
53.515.625;-439.103;-163.156;-69.139;-177.198;-182.387
53.535.156;-407.967;-171.398;-79.518;-183.608;-182.082
53.554.688;-396.368;-177.503;-86.538;-187.576;-163.767
53.574.219;-402.473;-178.724;-89.896;-190.324;-161.020
53.593.750;-423.535;-171.398;-87.759;-188.492;-173.535
53.613.281;-451.007;-155.220;-79.823;-177.503;-177.503
53.632.813;-468.407;-139.652;-68.529;-161.630;-173.535
53.652.344;-465.659;-134.463;-59.371;-152.167;-178.724
53.671.875;-444.902;-140.568;-57.540;-157.357;-191.239
53.691.406;-405.220;-153.999;-61.813;-175.061;-199.176
53.710.938;-334.096;-171.398;-67.002;-195.818;-214.133
53.730.469;-239.774;-189.103;-71.886;-214.744;-248.016
53.750.000;-172.009;-198.565;-76.770;-231.838;-275.183
53.769.531;-161.020;-193.987;-80.128;-243.132;-275.488
53.789.063;-179.335;-182.082;-80.128;-246.795;-264.194
53.808.594;-199.176;-172.314;-77.381;-246.184;-256.868
53.828.125;-218.712;-166.209;-71.886;-244.963;-246.795
53.847.656;-242.827;-159.799;-63.950;-244.048;-215.659
53.867.188;-275.183;-150.641;-54.792;-244.353;-162.546
53.886.719;-314.560;-137.515;-46.551;-246.184;-106.990
53.906.250;-350.580;-121.337;-40.140;-248.016;-63.339
53.925.781;-370.116;-106.685;-35.256;-248.932;-45.330
53.945.313;-364.011;-97.833;-30.372;-247.100;-59.066
53.964.844;-336.844;-95.085;-27.015;-239.774;-79.212
53.984.375;-308.150;-94.780;-26.099;-227.564;-84.096
54.003.906;-288.004;-93.559;-26.709;-212.607;-88.065
54.023.438;-258.700;-91.117;-27.015;-197.650;-101.190
54.042.969;-213.217;-91.117;-27.625;-185.134;-106.685
54.062.500;-181.777;-92.643;-29.457;-173.840;-92.949
54.082.031;-182.082;-91.422;-30.372;-160.104;-85.928
54.101.563;-203.144;-85.928;-31.593;-146.062;-109.432
54.121.094;-232.448;-78.297;-32.509;-134.463;-131.410
54.140.625;-263.278;-70.971;-32.814;-122.863;-116.453
54.160.156;-288.309;-65.781;-31.593;-110.348;-85.012
54.179.688;-286.172;-64.255;-30.678;-100.580;-65.476
54.199.219;-251.984;-65.781;-31.288;-95.391;-59.066
54.218.750;-219.933;-68.529;-32.814;-91.117;-61.813
54.238.281;-211.691;-72.802;-33.730;-84.707;-68.834
54.257.813;-211.081;-77.381;-33.425;-77.076;-69.750
54.277.344;-200.397;-83.181;-32.204;-69.139;-63.034
54.296.875;-181.166;-90.201;-31.899;-62.729;-55.403
54.316.406;-168.040;-95.391;-33.120;-58.761;-52.350
54.335.938;-163.767;-98.138;-33.730;-55.708;-59.982
54.355.469;-160.104;-100.275;-33.425;-53.877;-78.907
54.375.000;-161.630;-99.664;-32.509;-51.740;-102.106
54.394.531;-175.672;-94.780;-32.204;-49.908;-123.474
54.414.063;-190.018;-89.286;-32.204;-52.656;-155.830
54.433.594;-193.681;-85.928;-32.814;-61.813;-208.639
54.453.125;-193.681;-83.486;-34.341;-73.413;-251.374
54.472.656;-191.239;-81.349;-35.562;-81.349;-244.963
54.492.188;-181.777;-78.297;-35.256;-79.823;-191.850
54.511.719;-171.398;-74.328;-33.120;-70.360;-132.631
54.531.250;-158.883;-70.665;-30.678;-59.371;-98.443
54.550.781;-117.979;-69.750;-28.541;-49.603;-90.201
54.570.313;-49.298;-74.023;-27.320;-43.803;-108.822
54.589.844;-10.531;-79.518;-29.151;-42.888;-161.020
54.609.375;-38.309;-78.297;-30.678;-42.277;-235.195
54.628.906;-102.106;-69.139;-30.067;-38.004;-304.792
54.648.438;-158.272;-58.150;-29.762;-34.035;-335.012
54.667.969;-206.197;-48.382;-31.593;-32.814;-294.109
54.687.500;-256.563;-41.667;-34.646;-31.899;-187.576
54.707.031;-305.098;-38.004;-39.225;-29.457;-65.171
54.726.563;-349.359;-35.256;-44.109;-22.741;34.035
54.746.094;-378.053;-33.425;-46.856;-0.8700;114.621
54.765.625;-365.232;-34.646;-48.382;0.7784;184.219
54.785.156;-321.581;-36.477;-50.214;20.299;254.426
54.804.688;-296.856;-36.172;-50.824;27.625;320.971
54.824.219;-299.603;-34.341;-49.298;34.035;354.243
54.843.750;-298.077;-36.477;-48.077;38.614;346.917
54.863.281;-283.120;-44.109;-52.045;36.783;303.571
54.882.813;-267.857;-53.877;-61.203;27.625;225.427
54.902.344;-251.679;-65.171;-72.192;13.278;129.884
54.921.875;-210.775;-82.265;-83.181;-0.2900;34.951
54.941.406;-135.073;-104.853;-93.864;-18.773;-43.498
54.960.938;-70.665;-121.032;-100.885;-29.457;-90.201
54.980.469;-62.424;-123.168;-102.411;-33.425;-106.380
55.000.000;-85.012;-114.316;-100.580;-33.120;-109.127
55.019.531;-96.612;-102.411;-97.833;-30.678;-104.548
55.039.063;-111.874;-92.643;-94.780;-25.183;-81.349
55.058.594;-161.935;-84.402;-89.896;-15.415;-29.457
55.078.125;-232.143;-75.855;-81.960;-0.1068;38.919
55.097.656;-292.277;-67.613;-73.413;14.194;97.833
55.117.188;-335.012;-60.287;-64.560;27.930;121.947
55.136.719;-371.642;-52.656;-55.708;36.783;106.990
55.156.250;-417.125;-42.582;-45.635;41.056;80.128
55.175.781;-468.712;-30.678;-35.256;41.667;64.866
55.195.313;-510.531;-19.994;-26.709;41.056;60.897
55.214.844;-530.067;-13.584;-21.520;43.498;65.781
55.234.375;-522.741;-13.889;-19.383;48.382;69.444
55.253.906;-492.216;-19.689;-19.994;54.182;62.424
55.273.438;-451.313;-30.067;-23.352;62.118;45.330
55.292.969;-414.988;-42.277;-28.541;70.360;0.8089
55.312.500;-390.873;-53.877;-34.341;76.770;-47.466
55.332.031;-383.852;-63.034;-38.004;81.654;-86.538
55.351.563;-395.452;-69.444;-38.004;87.149;-82.570
55.371.094;-418.040;-74.939;-33.730;91.117;-48.382
55.390.625;-439.713;-83.486;-28.236;92.033;-0.8700
55.410.156;-454.670;-95.391;-23.657;89.896;20.604
55.429.688;-461.996;-107.295;-21.215;85.012;40.446
55.449.219;-462.607;-117.674;-20.604;75.244;48.077
55.468.750;-457.723;-126.832;-21.215;61.203;39.530
55.488.281;-450.092;-135.379;-24.573;44.719;31.899
55.507.813;-447.039;-143.010;-30.372;27.320;39.835
55.527.344;-454.976;-148.504;-34.646;12.973;52.045
55.546.875;-478.785;-150.031;-33.120;0.6563;58.455
55.566.406;-514.194;-148.810;-26.404;0.7173;60.287
55.585.938;-548.687;-146.978;-19.078;11.752;56.929
55.605.469;-572.497;-146.062;-13.889;21.520;41.056
55.625.000;-583.791;-146.673;-10.836;34.035;15.720
55.644.531;-581.960;-149.725;-10.836;41.972;-15.110
55.664.063;-568.223;-155.220;-14.805;42.888;-46.856
55.683.594;-547.466;-161.020;-20.299;38.614;-70.360
55.703.125;-527.015;-169.567;-27.625;29.457;-87.454
55.722.656;-508.089;-181.166;-37.698;16.636;-94.780
55.742.188;-494.963;-193.681;-48.077;0.5342;-75.549
55.761.719;-501.679;-201.923;-53.266;-0.0458;-42.888
55.781.250;-534.341;-201.618;-51.435;-0.3816;-28.541
55.800.781;-580.128;-194.597;-45.330;-0.5647;-25.183
55.820.313;-618.284;-188.187;-36.477;-0.1984;-11.752
55.839.844;-634.463;-188.492;-27.320;0.5647;0.0458
55.859.375;-624.695;-193.987;-21.520;14.499;-0.1984
55.878.906;-599.359;-195.818;-16.941;21.825;-20.604
55.898.438;-575.244;-187.882;-11.142;27.015;-49.603
55.917.969;-562.729;-174.451;-0.6563;30.067;-84.402
55.937.500;-554.487;-169.567;-11.142;28.236;-121.337
55.957.031;-543.193;-178.114;-28.541;19.078;-144.536
55.976.563;-538.919;-184.219;-48.687;0.6563;-142.399
55.996.094;-550.519;-177.808;-60.592;-0.0763;-118.284
56.015.625;-565.781;-166.514;-63.034;-0.1679;-80.128
56.035.156;-564.560;-163.767;-65.781;-0.3205;-66.392
56.054.688;-547.161;-173.840;-71.581;-0.9615;-117.979
56.074.219;-532.509;-182.387;-72.497;-14.805;-193.376
56.093.750;-521.520;-183.303;-64.255;-13.889;-225.122
56.113.281;-482.448;-190.629;-58.150;-11.447;-214.133
56.132.813;-400.336;-221.764;-67.002;-17.552;-205.891
56.152.344;-305.403;-267.552;-90.812;-36.477;-232.448
56.171.875;-247.100;-297.466;-113.095;-58.761;-278.236
56.191.406;-255.342;-299.298;-117.979;-69.139;-293.803
56.210.938;-310.287;-273.657;-99.969;-59.982;-237.943
56.230.469;-378.968;-227.869;-66.392;-36.477;-122.863
56.250.000;-442.155;-178.419;-30.067;-0.9921;-0.6563
56.269.531;-486.416;-135.684;0.2595;12.057;73.718
56.289.063;-506.258;-108.822;26.404;24.573;115.232
56.308.594;-505.342;-99.359;38.919;26.709;128.663
56.328.125;-481.227;-94.170;45.330;22.741;132.021
56.347.656;-433.303;-90.507;46.856;17.552;128.358
56.367.188;-378.663;-97.222;42.277;11.447;115.232
56.386.719;-324.939;-114.011;32.204;0.4121;95.085
56.406.250;-256.868;-135.684;17.857;-0.7173;53.571
56.425.781;-169.567;-157.662;-0.2289;-25.488;-14.499
56.445.313;-84.096;-175.977;-27.930;-49.298;-87.149
56.464.844;-16.026;-190.934;-54.487;-74.328;-140.568
56.484.375;41.667;-209.860;-79.212;-97.527;-168.346
56.503.906;107.601;-240.385;-108.211;-121.032;-189.408
56.523.438;163.156;-264.805;-133.242;-139.652;-208.944
56.542.969;152.473;-257.173;-137.210;-141.484;-207.723
56.562.500;77.381;-219.628;-116.758;-127.137;-173.535
56.582.031;23.352;-178.724;-88.065;-110.653;-125.611
56.601.563;41.972;-157.967;-76.770;-104.548;-126.526
56.621.094;81.349;-145.757;-78.297;-99.664;-161.020
56.640.625;81.044;-122.558;-63.339;-74.939;-131.716
56.660.156;72.802;-103.632;-32.509;-36.172;-51.740
56.679.688;172.619;-112.485;-0.8394;-0.1679;12.973
56.699.219;411.325;-148.810;0.1068;23.046;64.560
56.718.750;627.137;-181.777;0.8394;41.972;117.979
56.738.281;668.651;-185.134;20.604;56.013;168.651
56.757.813;561.813;-168.346;30.067;62.118;195.818
56.777.344;412.241;-138.431;35.867;59.982;188.797
56.796.875;289.225;-106.990;37.393;51.435;155.220
56.816.406;209.249;-100.275;30.678;37.393;103.022
56.835.938;155.525;-107.601;24.878;24.573;62.424
56.855.469;104.243;-98.138;30.983;20.604;59.982
56.875.000;56.013;-72.497;46.551;25.488;78.297
56.894.531;33.730;-47.161;63.034;34.035;92.338
56.914.063;42.582;-28.541;74.939;38.614;89.896
56.933.594;65.476;-21.215;77.381;32.204;55.403
56.953.125;114.927;-34.341;63.034;14.194;-11.447
56.972.656;204.976;-62.118;33.425;-0.7173;-78.297
56.992.188;293.498;-87.454;0.0153;-24.267;-107.601
57.011.719;338.370;-96.612;-19.689;-36.477;-94.475
57.031.250;338.370;-77.686;-16.636;-44.414;-46.551
57.050.781;341.728;-48.993;0.4426;-40.446;23.046
57.070.313;418.956;-46.856;27.320;-23.352;83.486
57.089.844;572.192;-72.497;40.751;-0.3205;108.516
57.109.375;689.713;-96.612;51.435;16.026;102.106
57.128.906;659.799;-92.949;69.444;33.730;85.928
57.148.438;529.762;-57.234;92.949;41.972;79.518
57.167.969;428.724;-0.8700;112.790;34.646;88.065
57.187.500;433.608;20.604;117.979;14.194;98.138
57.207.031;544.414;17.552;106.380;-12.668;99.664
57.226.563;691.239;-12.973;78.907;-41.056;81.960
57.246.094;781.899;-59.371;37.088;-65.171;31.899
57.265.625;744.353;-80.739;0.4121;-71.886;-16.636
57.285.156;578.907;-54.182;0.1374;-60.897;-0.5037
57.304.688;373.779;-0.9615;10.836;-55.403;56.319
57.324.219;221.154;27.015;13.889;-66.087;121.337
57.343.750;153.694;51.740;23.046;-74.023;173.840
57.363.281;145.452;53.571;45.330;-69.139;209.860
57.382.813;151.252;41.361;71.581;-58.761;228.785
57.402.344;150.641;38.614;97.527;-45.330;249.847
57.421.875;143.620;50.519;120.726;-27.320;291.056
57.441.406;119.811;73.413;134.463;-16.026;335.623
57.460.938;76.160;103.632;136.294;-17.247;358.517
57.480.469;29.457;132.937;137.210;-19.078;380.800
57.500.000;-0.4426;148.810;143.315;-0.9005;417.735
57.519.531;-15.415;143.620;149.725;10.836;419.261
57.539.063;-0.2595;128.358;153.999;33.425;381.105
57.558.594;33.425;112.179;157.967;52.045;368.895
57.578.125;99.969;90.507;158.883;63.645;392.705
57.597.656;179.640;68.529;158.272;72.802;426.282
57.617.188;233.059;56.624;161.630;87.149;462.302
57.636.719;246.795;55.708;166.819;103.632;489.164
57.656.250;238.858;63.034;165.598;110.348;489.164
57.675.781;233.974;69.750;152.473;100.580;456.502
57.695.313;234.280;79.823;137.821;85.928;432.692
57.714.844;229.396;98.748;133.242;81.654;444.597
57.734.375;225.733;114.316;131.105;81.044;458.333
57.753.906;229.396;124.695;123.779;72.497;451.618
57.773.438;243.742;139.042;115.842;57.845;429.640
57.792.969;270.910;155.830;112.485;44.414;421.398
57.812.500;289.835;174.756;118.895;39.225;455.281
57.832.031;285.256;190.018;135.989;43.803;508.700
57.851.563;265.720;188.797;153.694;52.961;549.603
57.871.094;247.711;170.482;163.767;58.455;583.486
57.890.625;250.153;141.789;165.293;57.234;613.095
57.910.156;282.204;110.043;160.714;52.350;623.168
57.929.688;321.276;71.886;149.115;46.856;593.254
57.949.219;335.623;27.015;128.968;40.446;514.194
57.968.750;333.486;-0.6258;109.432;36.783;410.714
57.988.281;343.559;-18.162;98.443;38.614;311.203
58.007.813;347.527;-12.057;94.475;45.024;214.438
58.027.344;316.087;10.836;94.475;52.350;115.537
58.046.875;265.720;43.498;95.085;56.624;30.372
58.066.406;221.764;75.244;92.033;53.266;-19.383
58.085.938;198.871;102.717;79.212;40.446;-38.919
58.105.469;189.408;124.695;62.424;25.488;-49.603
58.125.000;166.819;142.705;58.761;22.741;-45.024
58.144.531;133.242;156.136;70.971;33.425;-14.499
58.164.063;107.601;160.409;85.623;49.298;30.372
58.183.594;94.170;158.578;97.222;67.002;95.085
58.203.125;101.801;159.799;109.432;85.623;179.029
58.222.656;125.000;165.293;121.947;99.969;248.626
58.242.188;137.515;167.125;127.747;103.938;293.193
58.261.719;140.873;163.767;124.695;97.833;324.634
58.281.250;143.926;164.072;119.505;90.201;345.391
58.300.781;145.757;171.398;117.979;88.065;354.548
58.320.313;155.830;178.419;119.200;92.338;350.275
58.339.844;180.556;169.872;111.264;96.001;335.317
58.359.375;208.944;139.957;86.844;90.507;309.066
58.378.906;226.648;114.621;61.813;82.570;286.783
58.398.438;222.375;113.095;49.298;81.654;288.614
58.417.969;214.438;107.906;40.140;82.570;287.698
58.437.500;241.300;72.192;18.773;74.939;246.795
58.457.031;298.077;20.910;-12.668;60.287;173.230
58.476.563;330.739;-0.3510;-35.867;48.993;105.464
58.496.094;319.444;0.9310;-37.393;48.687;75.244
58.515.625;291.972;45.024;-23.352;56.624;88.980
58.535.156;259.615;100.580;0.0458;69.750;131.105
58.554.688;219.017;166.209;35.256;89.591;177.503
58.574.219;177.198;225.122;75.855;111.264;217.186
58.593.750;146.062;266.636;110.958;127.442;251.374
58.613.281;126.221;281.899;135.379;136.294;282.509
58.632.813;113.095;264.499;146.062;137.515;313.339
58.652.344;101.190;227.259;143.315;129.884;355.769
58.671.875;83.181;201.923;136.905;118.895;422.619
58.691.406;61.508;198.565;133.852;110.348;499.542
58.710.938;47.772;201.007;129.274;102.106;558.455
58.730.469;46.856;201.618;121.642;96.001;605.769
58.750.000;48.687;203.449;115.842;96.612;645.757
58.769.531;40.751;214.133;118.590;104.243;675.672
58.789.063;18.162;233.669;130.495;117.369;711.386
58.808.594;-0.8089;247.711;144.841;130.800;742.521
58.828.125;-23.657;250.153;153.694;136.600;744.353
58.847.656;-19.689;251.068;156.136;133.547;711.996
58.867.188;11.447;244.353;153.388;127.442;650.336
58.886.719;73.718;216.575;145.452;123.779;579.212
58.906.250;132.326;189.713;139.347;124.695;530.067
58.925.781;150.641;183.303;136.294;125.305;505.342
58.945.313;175.672;169.872;119.505;115.232;471.459
58.964.844;256.258;133.852;81.654;94.170;414.988
58.984.375;330.739;97.527;43.803;78.297;354.548
59.003.906;329.518;84.096;30.678;78.297;311.203
59.023.438;269.078;98.748;42.888;90.812;291.361
59.042.969;200.702;111.569;60.592;108.211;277.625
59.062.500;145.452;106.074;70.055;128.358;261.752
59.082.031;96.612;104.548;77.076;150.031;239.469
59.101.563;61.203;115.232;88.980;171.703;213.217
59.121.094;62.118;123.474;103.632;190.629;197.650
59.140.625;117.979;112.485;105.159;196.123;176.893
59.160.156;193.987;94.780;92.949;185.134;149.725
59.179.688;211.996;99.359;82.570;166.819;155.525
59.199.219;151.557;116.148;76.465;148.504;203.144
59.218.750;62.118;128.663;72.802;136.600;278.236
59.238.281;-12.363;142.094;80.128;139.652;361.264
59.257.813;-73.413;151.862;97.527;151.252;429.945
59.277.344;-130.800;155.830;112.790;158.883;480.006
59.296.875;-168.956;161.630;120.726;158.883;505.037
59.316.406;-158.883;161.020;121.032;151.862;507.173
59.335.938;-106.074;148.199;116.148;139.042;519.383
59.355.469;-58.761;141.178;112.485;126.832;559.371
59.375.000;-0.5647;137.821;104.853;116.453;610.958
59.394.531;156.746;107.295;81.349;96.917;629.273
59.414.063;465.965;42.277;45.635;65.781;587.149
59.433.594;819.750;-22.131;12.668;36.783;520.910
59.453.125;1.057.845;-52.350;-0.8700;21.215;467.796
59.472.656;1.061.203;-37.698;-14.805;17.247;409.493
59.492.188;844.170;11.142;-0.0153;21.825;340.201
59.511.719;524.878;67.613;30.983;35.256;281.899
59.531.250;227.259;99.054;63.339;54.792;236.416
59.550.781;30.678;96.001;81.654;74.023;198.871
59.570.313;-88.065;81.960;83.486;85.012;166.209
59.589.844;-207.112;89.896;82.265;87.149;153.388
59.609.375;-332.875;124.389;88.370;86.844;172.619
59.628.906;-408.883;169.261;99.969;85.928;202.534
59.648.438;-406.136;206.807;110.043;85.317;222.375
59.667.969;-358.822;228.175;111.874;82.875;239.774
59.687.500;-302.656;244.963;110.043;78.602;268.162
59.707.031;-216.575;266.941;111.569;77.076;324.328
59.726.563;-104.548;288.919;115.537;80.739;404.915
59.746.094;-10.836;301.740;117.979;82.265;445.208
59.765.625;68.223;298.382;119.200;75.549;413.462
59.785.156;157.967;273.352;114.316;61.203;330.739
59.804.688;253.205;231.838;93.559;40.446;209.554
59.824.219;328.907;192.460;63.339;16.636;87.759
59.843.750;355.769;159.493;45.024;0.1984;17.552
59.863.281;339.286;133.242;44.109;-0.6868;-0.2900
59.882.813;307.845;133.242;45.940;-30.372;-39.530
59.902.344;259.921;173.840;47.161;-65.476;-104.243
59.921.875;169.261;243.742;59.982;-80.128;-92.338
59.941.406;45.330;306.319;87.759;-56.624;44.414
59.960.938;-32.204;327.076;117.674;-0.9005;198.260
59.980.469;-33.120;322.192;141.484;38.919;281.593
60.000.000;-47.161;333.486;158.578;72.802;290.446
60.019.531;-106.074;359.127;163.462;88.065;224.817
60.039.063;-147.283;374.389;154.609;90.507;103.327
60.058.594;-137.210;375.611;136.905;85.623;-32.814
60.078.125;-82.570;373.779;119.200;73.413;-139.347
60.097.656;-11.142;374.389;106.685;59.371;-174.145
60.117.188;41.667;365.842;101.496;52.961;-128.663
60.136.719;64.255;343.864;100.580;55.708;-36.783
60.156.250;72.192;323.718;101.190;56.929;42.888
60.175.781;83.181;320.360;101.190;50.519;67.918
60.195.313;92.643;333.181;101.801;41.972;52.961
60.214.844;86.844;345.085;108.822;41.361;38.614
60.234.375;73.107;344.475;125.916;54.792;45.330
60.253.906;67.308;338.980;153.083;80.739;88.065
60.273.438;74.023;335.623;182.387;114.316;155.220
60.292.969;90.201;331.960;202.534;146.062;208.333
60.312.500;116.758;327.381;209.554;161.935;219.017
60.332.031;152.473;321.886;202.839;154.304;175.366
60.351.563;185.440;313.950;181.471;126.221;99.969
60.371.094;196.123;309.371;151.557;85.012;37.088
60.390.625;169.872;315.476;125.000;44.719;0.6563
60.410.156;119.811;327.991;104.853;13.889;0.3816
60.429.688;86.538;331.349;85.928;-0.9005;15.110
60.449.219;99.664;320.665;66.392;-27.320;26.709
60.468.750;150.336;298.993;49.603;-41.972;18.468
60.488.281;206.502;275.183;40.751;-56.929;-31.899
60.507.813;242.827;267.552;45.635;-70.971;-111.569
60.527.344;245.269;280.372;60.287;-76.770;-163.767
60.546.875;215.659;298.687;72.802;-71.581;-157.051
60.566.406;175.061;312.729;78.602;-64.255;-122.253
60.585.938;139.957;322.802;77.686;-63.950;-103.632
60.605.469;106.380;329.212;75.549;-65.171;-98.138
60.625.000;73.107;329.518;76.160;-62.118;-74.939
60.644.531;62.729;317.613;72.802;-66.392;-47.466
60.664.063;87.454;298.077;68.223;-81.654;-59.066
60.683.594;122.253;288.309;82.265;-91.422;-114.621
60.703.125;143.620;284.341;107.601;-82.570;-173.535
60.722.656;151.557;267.247;118.284;-56.929;-190.324
60.742.188;147.894;244.963;114.621;-22.131;-161.020
60.761.719;134.463;232.448;112.485;14.499;-114.621
60.781.250;120.116;229.396;115.537;51.435;-83.486
60.800.781;109.127;236.416;121.032;86.233;-79.823
60.820.313;97.527;253.816;125.916;114.927;-86.844
60.839.844;85.012;268.162;124.695;134.768;-87.149
60.859.375;76.160;271.520;115.232;143.010;-79.823
60.878.906;70.971;273.962;102.106;137.210;-77.076
60.898.438;71.886;278.236;88.370;121.947;-85.012
60.917.969;83.791;277.320;75.549;107.906;-111.569
60.937.500;104.853;278.541;72.497;100.885;-171.703
60.957.031;119.200;293.193;85.928;100.580;-232.753
60.976.563;107.295;315.476;109.127;107.601;-239.774
60.996.094;79.518;335.012;127.747;115.842;-203.449
61.015.625;64.255;345.696;128.358;113.706;-173.230
61.035.156;66.087;339.896;111.264;103.327;-156.441
61.054.688;72.497;320.665;89.286;94.170;-131.716
61.074.219;75.244;305.708;72.802;88.675;-99.359
61.093.750;72.497;300.824;66.697;84.096;-75.855
61.113.281;64.866;297.466;66.697;80.739;-67.308
61.132.813;52.350;288.614;63.950;80.433;-67.613
61.152.344;33.120;274.573;54.182;79.518;-76.770
61.171.875;12.973;260.226;42.277;74.939;-97.222
61.191.406;0.2900;251.984;32.814;66.087;-124.695
61.210.938;0.3205;249.847;26.099;53.571;-153.083
61.230.469;0.0153;249.847;25.794;44.719;-165.598
61.250.000;-0.8394;249.542;33.730;45.024;-152.167
61.269.531;-0.1374;244.353;44.414;40.140;-139.042
61.289.063;41.361;242.521;48.993;12.363;-164.988
61.308.594;106.990;258.089;46.245;-28.846;-220.543
61.328.125;151.557;269.383;38.004;-48.077;-240.385
61.347.656;154.915;249.237;25.488;-28.541;-201.007
61.367.188;130.495;219.322;19.689;0.3816;-141.789
61.386.719;97.222;208.028;30.678;34.341;-78.297
61.406.250;71.886;212.302;56.319;72.497;-0.9921
61.425.781;52.656;219.933;80.128;113.706;40.140
61.445.313;19.689;228.785;88.065;140.873;71.276
61.464.844;-34.646;239.164;86.538;151.862;118.284
61.484.375;-88.980;245.879;85.623;147.283;171.703
61.503.906;-112.790;245.574;80.739;125.000;182.998
61.523.438;-104.853;240.690;65.476;91.422;143.010
61.542.969;-81.044;235.501;44.109;56.013;65.781
61.562.500;-47.161;234.280;25.183;21.520;-50.519
61.582.031;-0.0763;241.300;13.584;-15.720;-195.513
61.601.563;43.193;255.037;10.226;-55.098;-318.529
61.621.094;57.234;267.552;12.668;-81.960;-365.842
61.640.625;36.172;266.941;21.215;-82.570;-339.896
61.660.156;0.0763;252.900;36.783;-54.182;-274.267
61.679.688;-31.288;229.090;51.435;-0.9005;-195.818
61.699.219;-47.772;193.376;53.877;25.488;-149.420
61.718.750;-45.635;153.999;39.225;32.204;-170.482
61.738.281;-49.908;127.442;19.078;19.994;-221.154
61.757.813;-73.107;116.148;0.5952;0.2900;-251.984
61.777.344;-102.106;114.927;-0.0763;-18.773;-279.457
61.796.875;-128.663;126.221;-0.4121;-41.667;-320.055
61.816.406;-163.767;139.042;-0.8089;-52.961;-327.991
61.835.938;-214.438;134.158;-17.552;-39.530;-275.183
61.855.469;-270.910;110.348;-31.288;-0.8089;-191.850
61.875.000;-318.529;77.686;-45.635;26.099;-100.580
61.894.531;-335.623;42.582;-59.982;52.045;-12.668
61.914.063;-314.560;0.5342;-79.823;56.929;33.120
61.933.594;-290.446;-19.078;-97.527;47.161;44.109
61.953.125;-294.109;-20.604;-98.748;37.088;76.770
61.972.656;-273.352;-25.488;-91.422;21.825;108.211
61.992.188;-190.324;-46.856;-85.928;-0.8089;70.055
62.011.719;-136.294;-56.013;-71.581;-39.835;-15.720
62.031.250;-182.387;-41.361;-48.077;-55.098;-78.297
62.050.781;-249.847;-23.962;-40.751;-63.034;-122.863
62.070.313;-256.868;-20.910;-56.624;-72.192;-181.166
62.089.844;-233.669;-34.951;-72.192;-73.718;-230.922
62.109.375;-189.713;-61.813;-78.297;-73.413;-282.814
62.128.906;-93.254;-90.507;-82.265;-87.759;-372.558
62.148.438;-12.668;-109.737;-82.265;-103.327;-457.112
62.167.969;-47.466;-110.348;-69.444;-96.001;-460.775
62.187.500;-182.692;-94.475;-49.298;-67.308;-389.957
62.207.031;-335.623;-80.433;-38.614;-35.256;-318.223
62.226.563;-446.734;-73.413;-39.225;-11.752;-296.245
62.246.094;-482.143;-63.339;-37.088;-0.1984;-331.654
62.265.625;-424.451;-56.319;-31.593;-0.6258;-400.336
62.285.156;-317.308;-61.813;-33.730;-12.973;-457.723
62.304.688;-233.059;-75.244;-48.382;-0.9921;-488.858
62.324.219;-161.630;-89.591;-70.055;-0.4426;-520.910
62.343.750;-72.802;-96.612;-86.844;-0.0763;-558.761
62.363.281;-24.573;-91.728;-92.033;0.6868;-568.223
62.382.813;-48.687;-85.928;-96.001;12.973;-531.593
62.402.344;-106.380;-84.402;-102.717;0.6258;-485.501
62.421.875;-152.473;-78.907;-98.748;-12.668;-472.680
62.441.406;-147.894;-75.244;-83.181;-30.372;-477.259
62.460.938;-107.601;-80.433;-65.476;-32.814;-445.513
62.480.469;-93.254;-81.044;-48.993;-24.573;-366.148
62.500.000;-122.558;-73.718;-34.951;-19.078;-287.088
62.519.531;-141.178;-72.802;-22.436;-19.689;-253.205
62.539.063;-103.938;-78.602;-0.9615;-28.846;-269.383
62.558.594;-40.751;-76.160;-0.0153;-49.908;-324.328
62.578.125;-0.1374;-57.845;0.1679;-73.107;-388.736
62.597.656;-0.2289;-27.625;0.5647;-80.739;-425.061
62.617.188;-20.604;-0.0763;21.520;-69.139;-417.125
62.636.719;-22.436;0.4121;35.562;-49.298;-376.526
62.656.250;0.5342;-12.668;32.204;-30.678;-338.980
62.675.781;93.559;-39.835;13.584;-16.331;-332.265
62.695.313;227.564;-68.529;-11.447;-0.6563;-359.127
62.714.844;311.813;-99.969;-35.562;-0.0763;-401.557
62.734.375;311.813;-130.189;-53.571;0.2595;-427.198
62.753.906;260.531;-141.178;-66.697;0.9615;-403.694
62.773.438;172.314;-125.611;-76.160;27.015;-326.465
62.792.969;67.002;-95.696;-77.381;51.740;-227.259
62.812.500;-25.183;-64.866;-75.549;73.107;-143.620
62.832.031;-105.769;-38.614;-76.160;84.402;-75.244
62.851.563;-164.072;-25.794;-86.233;76.465;-40.751
62.871.094;-178.419;-22.131;-110.958;42.582;-88.370
62.890.625;-187.576;-0.2289;-125.916;0.4731;-163.462
62.910.156;-220.238;37.088;-107.601;-13.889;-172.009
62.929.688;-209.554;63.950;-73.413;-23.046;-141.789
62.949.219;-107.906;55.708;-51.129;-40.140;-154.304
62.968.750;26.709;30.372;-37.698;-66.697;-211.081
62.988.281;143.010;12.668;-23.046;-92.338;-259.615
63.007.813;252.289;0.1068;-11.142;-101.190;-272.131
63.027.344;342.033;-0.8700;-0.4426;-92.949;-263.584
63.046.875;383.852;-12.057;0.1068;-80.739;-260.226
63.066.406;392.399;-10.836;10.226;-70.055;-267.247
63.085.938;375.916;-0.2900;23.962;-60.592;-279.762
63.105.469;318.834;14.194;33.425;-52.656;-287.088
63.125.000;221.154;35.867;35.256;-35.256;-281.899
63.144.531;110.348;60.287;41.056;0.0763;-270.910
63.164.063;10.531;81.044;49.908;44.414;-273.657
63.183.594;-70.665;85.317;48.077;78.602;-292.277
63.203.125;-113.400;70.055;33.730;96.306;-303.571
63.222.656;-96.001;45.940;14.499;95.085;-309.066
63.242.188;-30.067;33.425;-0.2595;73.107;-336.844
63.261.719;44.109;46.551;-21.520;41.361;-385.073
63.281.250;80.739;76.770;-43.498;20.604;-410.409
63.300.781;58.455;100.580;-55.403;26.099;-385.378
63.320.313;0.7479;103.022;-56.013;54.792;-336.844
63.339.844;-20.604;93.864;-55.098;87.149;-294.109
63.359.375;0.1374;84.402;-58.150;106.990;-257.784
63.378.906;82.265;71.276;-69.444;105.159;-244.353
63.398.438;186.966;55.708;-83.486;87.149;-259.310
63.417.969;248.626;44.719;-82.265;70.665;-281.899
63.437.500;238.858;47.772;-59.676;63.950;-285.562
63.457.031;179.029;67.613;-27.625;60.592;-249.542
63.476.563;98.443;97.222;0.3816;53.266;-190.934
63.496.094;24.878;122.253;28.541;37.393;-157.051
63.515.625;-23.962;136.905;40.751;15.720;-163.767
63.535.156;-57.234;149.115;50.214;0.3205;-182.082
63.554.688;-81.654;160.409;63.645;0.5647;-198.871
63.574.219;-88.675;162.241;75.244;19.383;-206.502
63.593.750;-82.265;149.725;82.570;48.382;-181.166
63.613.281;-70.360;127.747;88.370;92.643;-154.915
63.632.813;-48.993;100.275;89.591;133.547;-159.493
63.652.344;-16.331;67.308;78.907;152.473;-163.156
63.671.875;13.889;38.919;59.371;152.473;-137.210
63.691.406;21.520;29.457;44.719;151.862;-91.422
63.710.938;0.8089;40.446;40.751;152.473;-66.697
63.730.469;-0.3816;63.339;40.751;147.283;-81.349
63.750.000;0.2289;81.044;36.477;137.210;-113.095
63.769.531;46.551;75.244;28.236;131.410;-149.725
63.789.063;129.579;52.656;28.541;136.294;-187.882
63.808.594;200.702;37.698;40.751;149.115;-215.049
63.828.125;209.249;40.140;52.350;163.462;-219.628
63.847.656;151.862;50.214;54.182;181.471;-201.313
63.867.188;63.034;60.287;52.350;202.839;-176.282
63.886.719;-15.415;66.697;51.740;215.659;-165.904
63.906.250;-66.697;69.139;49.298;212.607;-169.261
63.925.781;-83.791;69.444;44.109;191.545;-161.630
63.945.313;-57.845;68.223;33.730;152.167;-140.873
63.964.844;-0.2595;65.476;18.468;102.717;-131.410
63.984.375;56.013;61.508;0.2289;58.455;-139.042
64.003.906;101.190;59.982;-0.8089;30.372;-143.010
64.023.438;113.400;62.118;-0.7784;21.825;-117.063
64.042.969;87.759;65.171;0.2900;32.204;-64.866
64.062.500;50.214;67.002;15.415;49.908;-21.520
64.082.031;18.468;65.476;22.436;59.982;-0.7173
64.101.563;-0.5342;64.866;25.488;58.761;-0.8394
64.121.094;-23.657;71.581;20.910;50.519;-13.889
64.140.625;-55.098;80.739;12.057;44.719;-0.8700
64.160.156;-100.580;83.791;0.8394;47.466;19.078
64.179.688;-134.158;88.980;11.447;53.877;55.708
64.199.219;-146.062;99.054;12.973;58.150;82.265
64.218.750;-126.832;100.275;-0.1068;51.740;62.118
64.238.281;-59.982;87.454;-31.593;30.678;-15.415
64.257.813;58.150;67.918;-59.066;13.584;-71.886
64.277.344;202.534;45.940;-70.971;17.247;-62.118
64.296.875;311.203;23.657;-71.276;35.562;-34.951
64.316.406;353.327;0.5037;-66.392;54.792;-30.067
64.335.938;342.033;-11.142;-62.424;64.255;-56.929
64.355.469;276.709;-24.267;-58.150;64.866;-85.623
64.375.000;156.136;-18.773;-41.361;70.665;-71.581
64.394.531;11.142;0.1984;-12.057;89.896;-16.636
64.414.063;-109.127;14.805;13.584;110.348;49.908
64.433.594;-179.029;15.110;29.762;117.674;103.022
64.453.125;-203.755;11.447;36.783;113.095;124.695
64.472.656;-203.144;10.836;38.919;106.380;108.516
64.492.188;-187.271;16.941;44.719;108.516;81.044
64.511.719;-148.810;23.352;54.792;124.084;82.875
64.531.250;-104.243;23.657;58.761;142.399;97.833
64.550.781;-83.486;23.046;45.940;144.231;75.855
64.570.313;-66.087;27.015;19.689;123.474;15.110
64.589.844;-26.709;37.698;-0.1679;91.117;-43.803
64.609.375;29.151;50.214;-19.078;45.940;-107.295
64.628.906;98.443;50.519;-50.214;-16.026;-210.775
64.648.438;150.031;39.530;-88.065;-67.002;-309.676
64.667.969;139.347;32.204;-104.243;-69.750;-321.581
64.687.500;72.802;35.867;-90.507;-25.183;-250.763
64.707.031;-0.4121;40.751;-62.424;35.562;-166.514
64.726.563;-63.950;39.835;-32.814;92.033;-91.422
64.746.094;-109.432;36.783;-0.4121;136.905;-0.5342
64.765.625;-148.199;33.120;20.299;160.104;75.855
64.785.156;-155.220;30.983;35.562;154.915;112.179
64.804.688;-98.138;28.541;33.425;124.389;76.770
64.824.219;-14.194;18.468;16.026;87.759;-0.5342
64.843.750;25.794;0.5952;0.2289;68.223;-58.455
64.863.281;0.0153;0.3816;0.2289;67.613;-56.624
64.882.813;-70.055;14.194;12.363;77.076;-39.530
64.902.344;-146.978;33.730;29.762;93.254;-22.741
64.921.875;-198.565;56.319;47.161;118.284;0.0458
64.941.406;-212.607;70.055;51.435;150.641;20.910
64.960.938;-196.734;69.750;38.919;180.250;0.6563
64.980.469;-183.913;62.424;23.657;198.565;-47.466
65.000.000;-182.387;45.024;18.162;205.281;-95.085
65.019.531;-154.915;13.584;13.584;197.344;-110.348
65.039.063;-82.875;-23.046;0.0153;172.009;-110.958
65.058.594;32.509;-62.424;-21.825;132.021;-117.063
65.078.125;170.482;-102.411;-48.382;80.739;-136.294
65.097.656;260.531;-126.832;-67.918;26.709;-161.935
65.117.188;265.720;-121.642;-73.413;-22.436;-186.661
65.136.719;226.038;-95.391;-76.770;-60.287;-199.481
65.156.250;164.988;-62.729;-77.991;-63.950;-159.493
65.175.781;68.529;-30.983;-60.592;-19.994;-40.446
65.195.313;-49.603;-14.499;-31.593;46.551;102.411
65.214.844;-140.873;-16.636;-14.499;101.190;177.503
65.234.375;-175.061;-21.215;-14.194;130.800;161.935
65.253.906;-163.156;-21.215;-19.383;142.094;100.580
65.273.438;-132.021;-18.468;-20.299;143.315;25.183
65.292.969;-95.085;-19.689;-16.636;141.789;-45.024
65.312.500;-41.972;-34.951;-17.247;143.010;-82.265
65.332.031;27.320;-60.592;-23.352;146.062;-85.317
65.351.563;95.391;-84.707;-27.930;145.452;-68.834
65.371.094;142.705;-100.580;-30.983;139.042;-48.687
65.390.625;157.051;-104.243;-39.835;124.389;-50.824
65.410.156;152.778;-97.222;-61.203;101.190;-97.222
65.429.688;138.431;-76.465;-78.907;86.538;-144.536
65.449.219;120.726;-45.024;-71.886;95.391;-135.379
65.468.750;117.369;-30.372;-53.571;111.569;-98.443
65.488.281;110.653;-37.698;-44.719;114.927;-85.012
65.507.813;81.654;-51.129;-49.298;102.411;-121.947
65.527.344;59.676;-73.718;-67.308;73.413;-218.407
65.546.875;65.781;-108.211;-89.591;37.698;-322.497
65.566.406;72.802;-143.315;-105.159;11.752;-371.947
65.585.938;44.414;-155.525;-104.548;0.6258;-336.538
65.605.469;-18.468;-132.631;-80.128;16.331;-225.733
65.625.000;-82.875;-86.538;-43.193;20.299;-114.011
65.644.531;-143.315;-23.657;-0.2595;14.499;-45.330
65.664.063;-213.828;39.530;35.256;14.194;0.9615
65.683.594;-268.773;73.413;53.266;24.878;74.939
65.703.125;-280.983;69.750;50.214;39.530;150.031
65.722.656;-256.563;47.466;40.751;49.603;217.491
65.742.188;-203.449;28.846;34.035;55.098;256.868
65.761.719;-118.284;0.3816;20.604;56.319;253.510
65.781.250;-21.520;-45.330;-13.278;45.940;191.239
65.800.781;56.624;-87.454;-53.266;26.099;89.591
65.820.313;102.106;-99.969;-80.739;11.142;-11.447
65.839.844;113.095;-105.769;-93.559;11.447;-69.750
65.859.375;113.400;-112.179;-95.085;21.215;-67.308
65.878.906;109.127;-100.275;-85.012;32.509;-30.983
65.898.438;61.508;-76.770;-63.034;51.740;32.509
65.917.969;-0.7479;-66.697;-48.382;72.192;93.254
65.937.500;-31.899;-70.055;-56.929;77.991;109.127
65.957.031;-34.646;-64.866;-66.392;72.497;102.106
65.976.563;-57.540;-48.077;-55.403;66.697;97.833
65.996.094;-81.349;-38.004;-28.846;65.171;84.402
66.015.625;-81.044;-38.614;-0.2289;66.392;49.603
66.035.156;-56.319;-42.277;11.752;64.866;0.2595
66.054.688;-19.383;-51.129;11.752;59.676;-25.183
66.074.219;36.477;-72.802;0.0153;50.214;-30.372
66.093.750;128.663;-102.717;-23.046;30.372;-77.381
66.113.281;240.690;-132.631;-57.845;-10.531;-230.922
66.132.813;325.855;-156.441;-96.001;-64.255;-427.503
66.152.344;328.602;-154.609;-116.148;-98.443;-519.689
66.171.875;244.353;-129.579;-115.842;-101.190;-479.090
66.191.406;132.631;-108.211;-114.927;-90.507;-398.810
66.210.938;40.140;-84.402;-114.011;-77.991;-331.654
66.230.469;-42.582;-40.446;-97.527;-55.098;-261.752
66.250.000;-135.073;-0.0763;-66.392;-17.857;-172.619
66.269.531;-215.049;0.0763;-42.277;12.668;-94.780
66.289.063;-252.595;-27.015;-35.256;25.488;-50.824
66.308.594;-244.048;-45.024;-32.814;31.593;-0.9005
66.328.125;-202.534;-31.593;-29.457;32.204;27.320
66.347.656;-150.641;-0.2900;-22.436;24.878;25.794
66.367.188;-89.896;0.1068;-16.636;21.825;0.0153
66.386.719;-16.636;-41.667;-23.657;34.951;-11.142
66.406.250;38.614;-94.170;-33.425;62.729;0.8394
66.425.781;45.024;-110.043;-31.288;96.612;63.034
66.445.313;0.0153;-95.391;-20.910;127.442;142.399
66.464.844;-73.413;-77.076;-11.142;148.199;211.996
66.484.375;-145.147;-58.455;-0.3816;158.272;247.100
66.503.906;-189.713;-37.393;-0.2900;158.578;238.553
66.523.438;-204.670;-24.267;-0.8394;150.946;201.923
66.542.969;-211.081;-16.026;-0.3510;142.399;177.808
66.562.500;-201.007;-0.5342;0.6868;125.611;145.757
66.582.031;-144.536;-0.6868;0.2595;84.402;50.824
66.601.563;-41.361;-27.015;-0.4426;33.120;-63.339
66.621.094;104.853;-78.297;-15.110;-0.6868;-146.978
66.640.625;249.542;-168.651;-53.877;-37.088;-226.038
66.660.156;312.424;-245.879;-98.138;-53.877;-280.678
66.679.688;286.783;-262.668;-112.790;-51.740;-272.436
66.699.219;209.554;-237.332;-104.853;-40.140;-232.143
66.718.750;102.411;-189.408;-89.591;-24.267;-181.471
66.738.281;-12.973;-121.337;-65.476;-0.2289;-98.748
66.757.813;-109.127;-62.118;-35.867;24.878;0.4426
66.777.344;-165.904;-41.667;-10.226;59.371;105.159
66.796.875;-180.556;-41.056;0.5952;93.254;191.850
66.816.406;-171.093;-25.183;13.889;111.874;230.311
66.835.938;-173.535;12.057;22.436;116.758;223.596
66.855.469;-196.429;43.803;32.204;120.116;211.691
66.875.000;-198.260;34.035;26.709;115.232;185.440
66.894.531;-151.252;-10.226;0.2289;95.085;120.421
66.914.063;-64.255;-51.435;-22.741;71.276;33.425
66.933.594;46.856;-79.518;-41.972;56.624;-48.687
66.953.125;149.420;-99.359;-60.592;51.740;-109.127
66.972.656;206.197;-108.211;-77.076;49.298;-149.115
66.992.188;207.112;-109.127;-85.928;44.719;-167.125
67.011.719;156.746;-103.632;-90.812;36.172;-164.683
67.031.250;86.844;-97.833;-103.938;19.994;-172.314
67.050.781;37.088;-90.812;-117.674;0.1374;-196.123
67.070.313;0.1679;-73.107;-110.653;-0.8394;-211.691
67.089.844;-46.551;-58.761;-81.654;-12.363;-203.755
67.109.375;-99.969;-54.487;-45.940;-19.689;-167.430
67.128.906;-135.379;-49.298;-12.973;-24.267;-106.685
67.148.438;-123.168;-58.455;0.5342;-17.857;-35.256
67.167.969;-25.794;-92.338;0.5342;-12.363;19.994
67.187.500;139.347;-130.800;-0.1984;-14.499;40.140
67.207.031;289.835;-168.346;-14.194;-17.552;30.983
67.226.563;358.211;-194.902;-34.035;-24.267;-0.9005
67.246.094;348.443;-178.114;-47.466;-35.562;-78.297
67.265.625;287.088;-111.569;-34.035;-37.698;-128.053
67.285.156;191.239;-33.425;-0.5952;-27.625;-120.116
67.304.688;109.737;18.162;0.0153;-30.983;-100.275
67.324.219;60.287;45.024;-20.299;-53.877;-96.612
67.343.750;-15.110;65.476;-29.151;-54.792;-44.414
67.363.281;-124.389;78.907;-14.194;-19.689;56.929
67.382.813;-188.187;70.055;-0.8700;14.499;128.663
67.402.344;-183.303;40.446;-25.183;32.204;165.904
67.421.875;-172.619;11.142;-38.309;52.350;219.017
67.441.406;-190.018;-0.7173;-33.730;82.265;291.056
67.460.938;-216.575;-22.741;-18.162;110.348;349.054
67.480.469;-237.027;-35.867;0.0153;130.800;384.768
67.500.000;-236.722;-44.414;13.889;141.484;400.946
67.519.531;-204.976;-59.982;15.720;138.736;393.315
67.539.063;-163.462;-88.370;0.9310;125.611;370.727
67.558.594;-129.579;-112.790;0.7479;103.632;331.044
67.578.125;-95.085;-118.590;13.584;67.613;250.763
67.597.656;-50.519;-115.232;11.142;13.889;117.979
67.617.188;0.1984;-107.601;-0.9615;-41.056;-33.425
67.636.719;44.719;-86.233;-29.762;-73.107;-138.431
67.656.250;73.413;-62.118;-34.646;-79.823;-184.524
67.675.781;90.812;-50.824;-32.204;-71.276;-208.333
67.695.313;95.085;-43.803;-26.404;-53.877;-220.238
67.714.844;90.507;-33.425;-18.468;-37.698;-225.427
67.734.375;63.339;-14.499;-0.3205;-28.541;-229.701
67.753.906;0.7479;14.194;22.741;-16.941;-209.554
67.773.438;-45.024;48.687;50.824;0.3510;-163.156
67.792.969;-75.855;76.465;70.665;32.204;-118.590
67.812.500;-77.991;69.444;71.581;60.897;-87.759
67.832.031;-33.730;14.194;45.940;76.465;-69.444
67.851.563;27.930;-59.676;0.9310;77.381;-51.129
67.871.094;54.792;-108.516;-18.773;71.581;-31.288
67.890.625;52.656;-117.979;-35.867;61.813;-10.531
67.910.156;49.603;-111.874;-45.330;53.571;22.436
67.929.688;66.697;-124.389;-56.624;50.824;40.751
67.949.219;87.454;-146.368;-68.223;50.824;31.899
67.968.750;48.993;-146.062;-59.066;57.234;56.013
67.988.281;-37.698;-131.410;-30.372;69.750;126.526
68.007.813;-92.338;-123.779;-14.194;71.886;177.503
68.027.344;-86.233;-126.526;-25.794;52.045;174.451
68.046.875;-63.034;-129.884;-40.751;23.046;144.536
68.066.406;-55.708;-121.947;-33.425;-0.0763;117.063
68.085.938;-38.309;-91.117;-11.447;-21.520;88.675
68.105.469;14.194;-38.614;0.7784;-42.582;46.245
68.125.000;76.465;10.226;19.689;-62.118;0.1374
68.144.531;110.043;35.562;21.215;-78.602;-33.120
68.164.063;117.369;36.477;0.9310;-98.748;-77.381
68.183.594;103.632;21.520;-12.973;-121.642;-139.042
68.203.125;64.560;-0.5037;-36.172;-130.800;-181.166
68.222.656;28.541;-48.993;-54.487;-122.558;-190.629
68.242.188;0.5342;-91.728;-61.508;-108.516;-194.292
68.261.719;-12.668;-114.621;-53.877;-92.949;-198.260
68.281.250;-24.573;-135.379;-44.109;-77.076;-191.545
68.300.781;-47.161;-156.441;-36.783;-60.897;-176.282
68.320.313;-81.044;-149.420;-23.352;-41.056;-157.967
68.339.844;-117.674;-110.348;-0.4731;-14.805;-132.937
68.359.375;-142.094;-68.529;11.447;0.6868;-105.769
68.378.906;-121.337;-58.150;16.636;12.973;-104.243
68.398.438;-72.497;-62.424;19.383;16.941;-114.316
68.417.969;-57.234;-28.541;38.309;35.562;-84.096
68.437.500;-76.465;28.236;59.676;55.708;-40.751
68.457.031;-93.559;56.319;60.287;57.540;-49.908
68.476.563;-73.413;48.382;29.762;25.488;-133.852
68.496.094;13.889;0.9005;-36.477;-41.056;-284.646
68.515.625;116.453;-36.477;-100.275;-105.769;-413.156
68.535.156;147.589;-49.908;-115.232;-133.852;-409.799
68.554.688;109.737;-48.993;-96.001;-131.105;-293.193
68.574.219;60.287;-64.866;-75.549;-114.011;-161.325
68.593.750;25.488;-84.096;-60.287;-92.643;-67.918
68.613.281;0.3816;-84.402;-48.077;-78.907;-23.962
68.632.813;0.6563;-83.181;-39.225;-76.465;-15.720
68.652.344;35.256;-102.717;-32.509;-74.634;-0.5342
68.671.875;57.540;-125.305;-25.794;-65.476;29.151
68.691.406;45.330;-114.011;-13.584;-53.571;63.950
68.710.938;19.078;-75.549;-0.3510;-45.940;70.055
68.730.469;0.4731;-53.266;-0.6868;-36.477;70.055
68.750.000;-12.668;-62.424;-11.752;-19.078;99.664
68.769.531;-36.477;-85.928;-0.6563;-0.0458;140.873
68.789.063;-43.498;-110.958;-0.3205;0.7173;152.473
68.808.594;-33.120;-128.968;-0.8394;-0.3510;119.505
68.828.125;-23.046;-129.884;-13.584;-24.573;70.360
68.847.656;-0.9921;-129.579;-18.162;-44.719;14.499
68.867.188;19.994;-120.421;-19.383;-62.729;-53.877
68.886.719;43.193;-75.855;-0.0763;-67.308;-81.960
68.906.250;29.457;-31.288;28.236;-45.940;-36.172
68.925.781;-0.8089;-19.078;52.045;-0.3816;46.245
68.945.313;-53.571;-19.994;71.581;42.888;127.137
68.964.844;-108.516;-16.026;86.233;78.907;169.567
68.984.375;-154.609;-11.447;89.896;96.917;138.431
69.003.906;-146.978;-19.383;79.212;97.222;48.993
69.023.438;-81.349;-39.225;59.371;79.212;-46.856
69.042.969;-0.5037;-59.066;44.414;50.824;-111.264
69.062.500;49.603;-73.413;36.477;30.067;-120.726
69.082.031;71.276;-81.044;25.183;27.320;-73.107
69.101.563;55.098;-91.117;10.226;39.225;0.0458
69.121.094;16.636;-116.758;-0.5342;47.466;62.118
69.140.625;-16.636;-137.821;-23.962;34.951;97.527
69.160.156;-32.204;-132.631;-39.530;0.8394;110.043
69.179.688;-39.225;-120.116;-44.414;-16.941;89.591
69.199.219;-42.277;-128.358;-46.551;-38.614;31.288
69.218.750;-56.013;-127.747;-42.888;-51.129;-22.741
69.238.281;-100.275;-88.675;-19.383;-44.719;-23.962
69.257.813;-141.789;-49.908;0.8089;-30.678;-0.3205
69.277.344;-147.589;-46.245;11.752;-28.846;-17.552
69.296.875;-135.989;-68.529;-0.6563;-36.172;-49.603
69.316.406;-116.453;-92.033;-25.794;-41.361;-62.729
69.335.938;-84.707;-93.559;-27.930;-40.140;-60.287
69.355.469;-67.613;-69.139;-10.836;-34.035;-65.781
69.375.000;-73.718;-41.361;0.6563;-27.015;-83.791
69.394.531;-85.928;-28.541;12.363;-10.836;-77.381
69.414.063;-107.906;-29.151;16.941;23.962;-29.457
69.433.594;-136.905;-50.519;26.404;66.392;36.783
69.453.125;-149.725;-90.201;35.256;95.696;95.391
69.472.656;-142.094;-116.148;36.783;95.391;98.748
69.492.188;-135.684;-102.106;37.088;72.192;50.214
69.511.719;-149.725;-66.392;45.330;57.540;19.078
69.531.250;-159.799;-67.613;47.772;58.150;11.752
69.550.781;-118.895;-120.421;28.846;51.129;-12.057
69.570.313;-52.656;-155.220;0.8700;30.067;-46.551
69.589.844;-16.026;-126.832;12.973;14.194;-54.792
69.609.375;0.7784;-74.634;32.204;14.805;-38.614
69.628.906;34.951;-37.393;44.109;21.520;-22.741
69.648.438;47.466;-21.215;40.751;22.741;-18.773
69.667.969;53.571;-27.930;22.131;17.247;-32.509
69.687.500;70.971;-56.929;-0.7784;0.7479;-86.233
69.707.031;104.548;-93.864;-43.498;-0.9615;-200.092
69.726.563;143.926;-108.822;-70.360;-32.204;-323.413
69.746.094;154.915;-86.538;-72.802;-39.530;-368.284
69.765.625;101.190;-49.298;-51.740;-21.215;-323.107
69.785.156;-0.5952;-17.552;-19.383;0.8089;-250.458
69.804.688;-114.011;0.8700;15.415;36.172;-176.893
69.824.219;-184.829;18.162;45.940;58.761;-99.359
69.843.750;-215.659;0.7784;66.697;67.918;-37.393
69.863.281;-220.543;0.0763;81.960;64.255;17.552
69.882.813;-204.670;-12.973;88.065;49.298;60.287
69.902.344;-175.672;-48.077;77.076;26.404;63.034
69.921.875;-149.420;-87.759;54.182;0.6258;54.182
69.941.406;-102.411;-139.347;15.720;-19.994;30.372
69.960.938;-25.183;-181.777;-29.762;-67.002;-41.972
69.980.469;28.236;-161.020;-50.214;-117.369;-119.811
70.000.000;42.582;-92.949;-43.803;-150.946;-161.935
70.019.531;41.667;-26.099;-34.341;-164.683;-170.788
70.039.063;17.247;26.404;-26.099;-154.915;-139.957
70.058.594;-30.372;64.560;-15.415;-124.695;-80.739
70.078.125;-74.023;78.297;-0.5952;-86.233;-32.814
70.097.656;-95.085;61.813;-0.1984;-47.772;-22.436
70.117.188;-87.454;28.846;-0.8700;-20.604;-61.813
70.136.719;-68.223;-0.9005;-23.962;-0.3205;-131.410
70.156.250;-61.508;-50.824;-29.151;19.383;-162.851
70.175.781;-66.087;-88.370;-19.994;46.551;-132.631
70.195.313;-48.077;-120.421;-20.604;55.098;-111.569
70.214.844;0.8700;-146.368;-37.088;36.172;-139.347
70.234.375;50.519;-147.283;-37.393;0.9310;-171.703
70.253.906;40.446;-123.779;-12.973;-12.973;-186.050
70.273.438;0.5952;-100.580;11.752;-28.541;-187.271
70.292.969;-26.404;-85.623;30.067;-29.457;-150.946
70.312.500;-55.098;-73.413;46.856;-17.552;-77.076
70.332.031;-90.812;-56.929;63.339;-0.0153;0.2595
70.351.563;-120.726;-33.425;72.192;13.278;55.098
70.371.094;-119.505;-12.363;68.529;15.720;63.645
70.390.625;-98.443;-0.1679;52.045;0.5952;36.172
70.410.156;-92.949;-0.3205;27.625;-0.4731;-0.2595
70.429.688;-110.653;-12.363;0.5037;-0.5952;-21.520
70.449.219;-107.601;-26.404;-25.488;-16.331;-53.266
70.468.750;-56.319;-41.667;-68.223;-47.466;-136.294
70.488.281;0.4121;-50.824;-87.454;-70.055;-199.786
70.507.813;29.151;-60.592;-74.328;-64.255;-180.861
70.527.344;-0.0458;-65.781;-49.298;-43.498;-105.159
70.546.875;-72.497;-57.540;-22.741;-20.604;-13.889
70.566.406;-141.789;-54.487;-0.5037;-0.3205;57.845
70.585.938;-174.451;-72.497;-0.6563;0.6563;92.033
70.605.469;-172.924;-102.411;-20.910;11.142;92.338
70.625.000;-146.368;-132.326;-41.056;0.8089;64.560
70.644.531;-110.653;-158.272;-66.697;-0.3205;16.636
70.664.063;-100.885;-171.703;-82.570;-14.805;-20.299
70.683.594;-115.842;-164.988;-72.802;-20.299;-32.814
70.703.125;-128.053;-136.905;-43.498;-25.183;-45.024
70.722.656;-139.042;-91.728;-16.941;-33.730;-72.497
70.742.188;-147.894;-44.414;-17.247;-50.519;-129.884
70.761.719;-153.083;-15.110;-45.940;-76.465;-211.996
70.781.250;-164.683;-22.436;-77.991;-97.527;-257.479
70.800.781;-191.850;-45.330;-91.422;-100.275;-222.680
70.820.313;-225.733;-60.592;-84.707;-85.317;-139.347
70.839.844;-228.480;-88.980;-77.686;-56.013;-64.560
70.859.375;-211.386;-125.305;-76.465;-22.131;-25.183
70.878.906;-224.512;-148.504;-76.465;-0.0153;-34.646
70.898.438;-239.164;-179.640;-87.454;-0.1984;-92.643
70.917.969;-203.449;-229.701;-111.264;-21.825;-168.956
70.937.500;-121.032;-287.698;-137.821;-46.245;-233.669
70.957.031;-33.425;-337.759;-155.525;-64.560;-262.363
70.976.563;0.1374;-357.295;-153.083;-69.750;-248.626
70.996.094;-31.899;-342.033;-133.547;-63.645;-211.081
71.015.625;-96.612;-306.013;-108.211;-56.319;-174.451
71.035.156;-160.104;-272.131;-88.370;-57.540;-166.514
71.054.688;-193.071;-247.405;-75.855;-71.581;-192.155
71.074.219;-183.608;-219.017;-70.360;-96.612;-244.353
71.093.750;-193.987;-194.292;-66.392;-110.958;-287.393
71.113.281;-260.531;-181.777;-54.792;-93.559;-269.383
71.132.813;-349.359;-164.683;-34.951;-54.792;-203.755
71.152.344;-437.576;-135.989;-0.9615;-14.194;-133.547
71.171.875;-508.089;-116.148;0.7784;0.9005;-90.812
71.191.406;-538.004;-132.326;0.2595;0.2595;-114.621
71.210.938;-515.720;-181.777;-23.352;-22.741;-195.208
71.230.469;-437.576;-243.132;-63.645;-54.182;-284.035
71.250.000;-357.295;-298.077;-108.211;-83.791;-350.885
71.269.531;-369.506;-316.697;-127.137;-94.170;-360.043
71.289.063;-473.291;-293.803;-112.790;-81.960;-298.077
71.308.594;-579.518;-261.752;-91.728;-65.781;-209.860
71.328.125;-615.232;-244.963;-81.044;-61.203;-150.336
71.347.656;-564.255;-250.763;-83.181;-73.413;-153.388
71.367.188;-456.807;-271.520;-96.917;-96.306;-215.965
71.386.719;-355.159;-280.372;-109.127;-113.706;-289.835
71.406.250;-336.844;-259.615;-102.106;-106.074;-302.350
71.425.781;-420.482;-224.817;-76.160;-75.855;-242.521
71.445.313;-534.035;-197.344;-56.013;-54.792;-186.661
71.464.844;-606.685;-171.398;-51.129;-56.929;-175.672
71.484.375;-634.768;-140.263;-45.024;-61.813;-168.651
71.503.906;-634.158;-124.695;-35.562;-58.455;-146.978
71.523.438;-599.054;-131.410;-31.593;-48.687;-122.863
71.542.969;-521.520;-144.536;-29.151;-31.288;-99.969
71.562.500;-417.430;-168.346;-29.457;-14.194;-99.969
71.582.031;-318.223;-206.807;-42.582;-12.057;-150.336
71.601.563;-266.636;-234.890;-55.708;-19.078;-215.965
71.621.094;-265.110;-247.405;-58.761;-25.794;-252.595
71.640.625;-218.101;-260.226;-69.750;-45.024;-298.993
71.660.156;-83.791;-262.057;-94.475;-83.791;-399.420
71.679.688;42.582;-251.679;-113.095;-116.453;-497.100
71.699.219;88.980;-255.952;-111.874;-117.979;-505.037
71.718.750;70.055;-279.151;-97.833;-98.443;-433.913
71.738.281;25.183;-289.530;-83.486;-82.875;-350.580
71.757.813;-13.584;-273.046;-79.823;-80.128;-295.940
71.777.344;-42.582;-251.068;-84.402;-82.265;-272.436
71.796.875;-78.602;-231.227;-81.349;-80.128;-251.068
71.816.406;-143.926;-195.513;-57.540;-70.055;-204.060
71.835.938;-237.332;-148.504;-19.689;-49.603;-152.167
71.855.469;-306.013;-122.253;10.531;-23.657;-138.126
71.875.000;-274.267;-127.747;23.657;-0.0763;-138.126
71.894.531;-150.336;-150.336;24.267;13.278;-113.095
71.914.063;-45.635;-174.451;17.552;14.499;-80.739
71.933.594;-15.110;-187.882;0.6258;0.3205;-71.276
71.953.125;-33.730;-179.945;-12.668;-20.604;-110.043
71.972.656;-75.855;-146.673;-41.056;-53.877;-196.123
71.992.188;-131.410;-102.717;-66.392;-80.433;-266.331
72.011.719;-200.092;-68.529;-70.360;-79.518;-260.531
72.031.250;-259.921;-51.129;-48.993;-51.740;-193.987
72.050.781;-258.394;-30.983;-12.668;-21.520;-134.158
72.070.313;-186.661;-11.752;15.110;-10.836;-147.894
72.089.844;-123.474;-13.584;20.604;-14.805;-210.165
72.109.375;-145.147;-16.636;22.741;-11.447;-219.017
72.128.906;-215.049;-12.363;31.288;0.1374;-152.778
72.148.438;-242.216;-26.709;32.509;0.7784;-68.834
72.167.969;-190.934;-55.098;28.236;0.4121;-0.0153
72.187.500;-68.529;-84.707;26.404;-0.2595;46.551
72.207.031;65.781;-109.432;23.962;-10.226;75.549
72.226.563;118.895;-115.842;19.689;-16.331;107.601
72.246.094;100.885;-125.916;0.4121;-26.709;132.326
72.265.625;104.243;-174.145;-39.530;-52.961;85.317
72.285.156;137.210;-231.838;-94.475;-87.149;-37.088
72.304.688;126.832;-230.922;-119.200;-106.685;-157.051
72.324.219;44.719;-166.819;-104.853;-104.548;-228.785
72.343.750;-55.403;-98.138;-70.360;-85.623;-240.385
72.363.281;-125.916;-61.508;-33.120;-53.266;-200.702
72.382.813;-161.935;-35.867;-0.0763;-20.604;-148.810
72.402.344;-177.503;0.2595;22.741;-0.4731;-103.022
72.421.875;-183.303;39.835;34.646;-0.4731;-56.319
72.441.406;-175.366;63.645;37.088;-0.6563;-0.6258
72.460.938;-144.841;79.823;37.393;-0.6868;30.067
72.480.469;-92.643;90.507;43.193;-0.7784;42.888
72.500.000;-30.983;79.823;56.013;-0.3205;44.414
72.519.531;30.067;49.298;66.392;0.3510;30.067
72.539.063;87.149;32.204;74.634;0.5647;0.0153
72.558.594;137.515;30.983;89.286;0.8394;-16.941
72.578.125;163.462;26.404;105.464;16.331;-15.720
72.597.656;144.536;18.468;111.264;23.657;-16.026
72.617.188;85.928;16.026;107.601;29.457;-33.730
72.636.719;12.363;21.825;105.464;46.551;-60.287
72.656.250;-40.140;18.162;103.938;75.855;-70.360
72.675.781;-23.657;-15.415;78.297;88.675;-102.717
72.695.313;72.802;-70.971;14.805;57.540;-209.554
72.714.844;162.546;-106.380;-49.908;0.5342;-313.645
72.734.375;157.662;-92.033;-71.276;-31.288;-331.654
72.753.906;101.496;-48.687;-58.761;-59.371;-309.982
72.773.438;66.697;-10.836;-44.414;-95.085;-298.993
72.792.969;37.088;16.941;-33.730;-120.421;-270.299
72.812.500;-23.352;50.519;-11.752;-119.811;-204.060
72.832.031;-106.685;84.402;30.067;-99.969;-100.885
72.851.563;-179.945;96.306;70.360;-70.665;37.088
72.871.094;-216.575;94.475;91.117;-36.172;161.630
72.890.625;-226.038;105.159;105.464;-0.0458;226.648
72.910.156;-236.722;129.884;123.168;36.477;256.258
72.929.688;-239.164;138.126;128.968;69.139;268.162
72.949.219;-203.449;115.537;109.737;87.454;248.626
72.968.750;-145.147;80.433;81.960;99.664;214.133
72.988.281;-89.286;36.172;56.929;105.769;164.377
73.007.813;-10.226;-21.215;22.741;85.317;49.908
73.027.344;98.138;-61.813;-19.689;38.919;-102.717
73.046.875;191.545;-60.287;-46.856;0.2289;-172.924
73.066.406;266.331;-41.056;-54.487;-0.8700;-129.274
73.085.938;330.128;-25.794;-58.761;-10.836;-56.929
73.105.469;343.864;-19.078;-57.234;-12.057;0.3510
73.125.000;320.665;-29.151;-43.193;-0.8700;58.761
73.144.531;306.929;-51.740;-29.151;-0.6258;81.960
73.164.063;298.687;-72.802;-26.404;-0.9005;41.056
73.183.594;281.593;-88.370;-34.646;-13.889;-47.466
73.203.125;247.711;-105.464;-47.161;-17.552;-128.968
73.222.656;173.230;-97.222;-39.225;-10.836;-146.978
73.242.188;40.140;-33.120;0.4731;14.805;-69.139
73.261.719;-117.063;45.024;59.982;49.908;71.886
73.281.250;-255.647;102.717;100.580;77.076;209.554
73.300.781;-360.348;150.641;127.747;90.812;303.266
73.320.313;-411.630;186.355;137.210;88.675;325.549
73.339.844;-402.167;196.123;121.947;68.529;273.657
73.359.375;-344.475;189.103;93.864;37.393;198.565
73.378.906;-255.952;172.924;65.781;0.4731;146.978
73.398.438;-153.999;132.631;34.951;-25.794;103.022
73.417.969;-56.319;84.707;0.6868;-50.519;68.834
73.437.500;0.3816;61.203;0.0458;-56.624;90.201
73.457.031;43.193;45.635;0.5037;-52.961;129.579
73.476.563;109.737;10.226;-0.6258;-59.371;109.127
73.496.094;166.514;-21.825;-18.162;-61.203;67.613
73.515.625;151.557;-21.215;-0.0153;-33.730;79.212
73.535.156;94.170;-0.3816;30.067;0.8394;117.979
73.554.688;37.088;23.046;50.519;41.056;144.536
73.574.219;-29.151;70.665;70.665;64.866;185.440
73.593.750;-96.612;123.779;92.643;80.128;255.647
73.613.281;-134.158;158.578;106.685;84.707;321.276
73.632.813;-128.053;164.988;109.432;84.096;349.054
73.652.344;-86.844;145.147;94.780;75.855;326.160
73.671.875;-38.919;104.243;58.455;49.603;249.237
73.691.406;-0.0153;68.529;16.941;13.278;164.988
73.710.938;18.468;65.781;-0.5037;-0.9310;136.294
73.730.469;30.067;69.139;-13.889;-17.857;136.600
73.750.000;72.497;41.667;-37.088;-29.457;107.601
73.769.531;127.137;0.0153;-65.476;-45.635;67.308
73.789.063;143.010;-10.836;-69.139;-50.519;61.813
73.808.594;117.063;-0.1984;-49.298;-38.309;79.823
73.828.125;72.192;-0.3816;-20.604;-16.026;96.306
73.847.656;14.499;0.4731;12.973;0.8394;108.211
73.867.188;-47.161;47.772;44.719;23.657;98.748
73.886.719;-97.222;96.306;64.560;25.794;77.076
73.906.250;-134.768;117.979;69.750;23.657;73.413
73.925.781;-161.020;114.927;68.529;24.573;81.654
73.945.313;-169.567;92.949;64.560;26.099;97.222
73.964.844;-140.873;46.856;49.603;22.131;129.884
73.984.375;-83.486;-0.7784;27.015;16.636;161.935
74.003.906;-41.361;-30.678;17.552;20.299;179.029
74.023.438;-16.941;-16.941;22.741;29.762;184.829
74.042.969;0.5037;0.2595;29.151;39.835;186.050
74.062.500;32.204;11.447;31.288;53.571;184.829
74.082.031;110.043;0.4426;20.910;65.781;148.810
74.101.563;221.764;-0.6563;0.6868;76.770;97.833
74.121.094;272.131;-0.8089;13.278;100.580;110.653
74.140.625;245.269;0.1374;36.783;128.053;180.250
74.160.156;197.955;26.404;59.371;143.620;249.542
74.179.688;155.830;58.761;77.991;148.504;288.919
74.199.219;111.569;80.739;91.117;144.231;286.172
74.218.750;46.245;99.359;101.496;134.768;274.573
74.238.281;-40.140;128.358;113.095;127.137;291.056
74.257.813;-115.232;157.662;115.232;110.043;301.129
74.277.344;-158.883;167.125;104.243;82.875;276.709
74.296.875;-170.482;137.515;90.507;56.013;243.742
74.316.406;-154.609;89.896;76.465;30.067;207.723
74.335.938;-138.431;74.023;60.897;0.5952;153.999
74.355.469;-136.294;88.065;52.045;-0.4121;97.527
74.375.000;-135.379;100.275;53.877;0.6868;67.918
74.394.531;-126.526;102.717;56.624;28.846;68.223
74.414.063;-83.791;93.559;41.056;37.088;66.087
74.433.594;0.0153;68.529;0.5342;25.183;50.214
74.453.125;64.255;38.004;-17.857;18.773;70.971
74.472.656;76.160;11.752;-0.9921;37.698;149.115
74.492.188;54.182;-0.3510;17.552;77.076;249.847
74.511.719;0.0153;-0.1374;57.540;123.474;358.211
74.531.250;-45.024;-0.3510;90.201;158.272;444.902
74.550.781;-27.320;-14.805;99.664;165.293;457.723
74.570.313;26.099;0.1068;93.864;144.536;380.189
74.589.844;61.203;47.466;86.233;116.758;266.941
74.609.375;61.508;88.370;86.844;114.316;205.586
74.628.906;49.603;109.127;94.475;136.600;203.449
74.648.438;60.287;113.706;92.643;150.031;191.545
74.667.969;89.286;94.170;73.107;134.463;137.210
74.687.500;100.885;78.907;52.656;100.275;77.686
74.707.031;79.518;99.359;50.519;73.107;59.982
74.726.563;23.962;132.631;70.665;74.023;98.748
74.746.094;-47.161;153.999;103.022;98.443;177.503
74.765.625;-79.823;146.368;123.474;120.726;247.405
74.785.156;-56.319;102.717;118.895;124.695;278.236
74.804.688;-16.026;49.908;104.853;116.148;294.109
74.824.219;25.794;18.468;100.885;107.601;322.802
74.843.750;72.802;0.4426;97.833;94.475;330.739
74.863.281;115.842;-0.8700;81.654;65.171;272.741
74.882.813;142.705;-0.4731;68.223;36.477;197.650
74.902.344;136.294;19.078;75.855;33.730;186.050
74.921.875;101.801;31.899;92.033;52.350;228.785
74.941.406;66.392;24.267;96.917;74.328;280.983
74.960.938;48.687;0.4426;90.507;93.559;329.823
74.980.469;42.277;-0.4731;88.675;108.516;351.496
75.000.000;27.320;19.994;97.527;110.653;335.317
75.019.531;14.499;53.571;101.801;99.969;309.371
75.039.063;30.067;64.866;95.085;88.980;296.551
75.058.594;42.582;71.581;92.033;88.370;296.856
75.078.125;22.741;90.812;93.254;88.370;284.035
75.097.656;10.226;122.253;83.791;67.918;217.186
75.117.188;33.120;157.662;66.392;31.593;111.569
75.136.719;70.055;164.683;53.571;0.9921;49.603
75.156.250;91.422;141.484;47.466;18.468;66.392
75.175.781;76.770;129.884;52.656;43.498;127.137
75.195.313;27.625;135.989;69.139;71.581;198.260
75.214.844;-28.541;133.547;88.980;98.138;256.563
75.234.375;-75.549;110.653;106.074;122.558;302.961
75.253.906;-107.906;72.802;118.590;143.315;354.243
75.273.438;-124.695;36.172;124.084;155.830;407.662
75.292.969;-133.547;16.636;130.189;163.156;472.375
75.312.500;-128.663;0.8394;137.210;166.209;530.983
75.332.031;-85.623;0.0153;131.105;153.083;519.689
75.351.563;0.2289;-0.2900;106.990;117.369;425.672
75.371.094;85.012;11.447;74.634;71.276;309.066
75.390.625;106.990;48.382;55.098;42.277;236.416
75.410.156;81.349;89.286;60.287;48.687;227.869
75.429.688;47.772;108.822;76.160;75.244;242.521
75.449.219;18.773;101.801;85.012;99.359;237.332
75.468.750;-13.889;86.538;88.980;119.200;236.111
75.488.281;-52.045;75.549;95.696;139.652;263.889
75.507.813;-67.002;61.203;91.117;146.978;271.215
75.527.344;-35.867;45.330;66.392;126.832;214.744
75.546.875;0.5647;52.656;47.161;98.138;143.926
75.566.406;14.194;75.244;55.708;96.001;140.568
75.585.938;0.7479;76.465;80.739;124.084;214.438
75.605.469;29.151;61.508;103.327;157.662;307.845
75.625.000;81.960;47.161;116.758;179.640;376.832
75.644.531;126.526;35.562;121.642;182.998;400.641
75.664.063;121.642;46.245;128.663;173.535;379.273
75.683.594;66.392;72.802;146.368;168.651;348.443
75.703.125;0.3205;70.971;155.830;170.788;320.971
75.722.656;-26.709;40.751;144.231;170.788;289.530
75.742.188;-31.899;23.352;128.053;166.209;272.741
75.761.719;-45.635;29.457;123.168;164.988;283.730
75.781.250;-76.465;49.298;132.937;173.840;311.203
75.800.781;-100.885;71.581;147.589;191.545;346.612
75.820.313;-103.938;86.538;157.357;209.860;384.768
75.839.844;-98.138;91.728;158.272;221.459;417.735
75.859.375;-88.675;84.096;145.147;214.438;426.587
75.878.906;-63.950;68.529;117.063;180.556;403.999
75.898.438;-42.582;59.066;89.286;135.684;382.937
75.917.969;-63.950;63.645;77.686;99.359;395.757
75.937.500;-123.474;76.160;78.907;70.360;428.114
75.957.031;-188.492;84.096;81.349;43.498;457.723
75.976.563;-239.774;80.128;82.265;23.352;483.364
75.996.094;-261.142;67.308;81.349;11.142;489.469
76.015.625;-251.374;48.993;79.212;0.5952;462.302
76.035.156;-237.943;29.151;78.297;0.6868;418.651
76.054.688;-230.006;14.499;80.739;14.805;386.294
76.074.219;-209.554;0.7173;87.149;33.120;381.716
76.093.750;-181.471;0.3510;96.612;63.034;396.062
76.113.281;-166.209;0.3205;108.516;99.359;413.156
76.132.813;-173.535;0.7173;118.590;126.832;427.808
76.152.344;-204.670;13.889;119.200;130.495;434.524
76.171.875;-242.521;17.857;110.653;114.316;424.756
76.191.406;-262.973;14.499;96.917;94.170;394.841
76.210.938;-254.121;0.3205;81.960;75.855;352.717
76.230.469;-210.470;-15.415;67.613;60.287;315.171
76.250.000;-137.210;-40.140;56.929;48.077;295.635
76.269.531;-81.960;-63.034;50.519;41.056;299.908
76.289.063;-88.065;-77.686;48.993;40.751;322.802
76.308.594;-124.389;-87.149;51.435;46.856;347.222
76.328.125;-114.011;-99.664;55.403;57.845;354.853
76.347.656;-11.142;-116.148;59.676;70.360;341.728
76.367.188;110.653;-127.442;64.255;79.518;316.087
76.386.719;132.021;-122.558;68.834;81.960;290.140
76.406.250;49.908;-104.548;71.886;77.991;268.162
76.425.781;-60.897;-85.012;73.107;72.192;243.437
76.445.313;-149.725;-72.192;71.886;67.613;219.628
76.464.844;-197.344;-69.139;68.223;63.034;200.092
76.484.375;-202.839;-70.971;62.118;55.098;177.503
76.503.906;-195.818;-64.255;57.845;45.635;153.694
76.523.438;-220.849;-42.888;59.982;40.446;130.800
76.542.969;-284.646;-14.194;69.139;42.888;105.464
76.562.500;-359.127;10.531;81.960;49.908;97.833
76.582.031;-419.261;27.015;93.864;58.455;126.832
76.601.563;-451.618;33.425;100.885;63.950;180.556
76.621.094;-451.007;33.120;101.190;61.508;243.742
76.640.625;-422.924;30.372;97.833;54.182;305.403
76.660.156;-381.105;28.541;94.475;48.993;356.074
76.679.688;-338.980;29.457;95.696;51.129;386.905
76.699.219;-302.961;30.678;100.580;60.897;395.452
76.718.750;-263.278;27.320;103.632;73.413;384.463
76.738.281;-200.092;14.499;98.138;80.128;342.033
76.757.813;-115.537;-0.4731;83.791;77.686;268.162
76.777.344;-30.067;-24.878;66.392;70.055;195.513
76.796.875;43.193;-41.972;50.519;62.424;149.420
76.816.406;88.370;-50.519;39.225;55.098;125.916
76.835.938;90.201;-45.635;32.814;44.414;111.569
76.855.469;59.371;-28.846;31.593;32.204;102.717
76.875.000;24.267;-10.836;35.562;24.878;104.243
76.894.531;0.6563;-0.0153;43.803;26.709;116.758
76.914.063;21.520;0.5952;54.182;34.951;148.199
76.933.594;55.708;13.889;64.866;44.109;201.923
76.953.125;61.203;26.099;75.549;51.435;261.447
76.972.656;20.604;39.835;86.233;58.455;314.255
76.992.188;-35.562;48.077;95.391;64.560;352.106
77.011.719;-77.686;48.687;101.190;70.055;366.453
77.031.250;-87.454;43.498;103.022;74.023;357.906
77.050.781;-53.266;30.372;100.885;75.855;329.212
77.070.313;17.552;0.8394;95.696;76.160;279.151
77.089.844;99.969;-16.331;87.759;74.023;224.206
77.109.375;161.630;-32.814;78.907;70.360;191.850
77.128.906;180.861;-33.425;73.107;67.613;176.587
77.148.438;156.746;-19.994;70.360;66.087;163.767
77.167.969;105.159;-0.0763;68.834;64.560;160.104
77.187.500;50.824;17.247;67.308;62.424;175.061
77.207.031;17.552;31.593;65.781;59.066;204.976
77.226.563;11.447;39.225;65.171;54.487;235.501
77.246.094;33.120;37.698;65.781;51.129;262.363
77.265.625;87.149;30.067;67.002;49.603;291.972
77.285.156;146.673;24.573;68.223;49.298;319.444
77.304.688;169.872;24.878;69.750;49.603;332.265
77.324.219;173.840;25.183;69.750;48.382;328.602
77.343.750;190.324;23.046;67.308;44.414;305.708
77.363.281;199.786;20.604;63.339;38.614;260.531
77.382.813;179.029;21.520;58.761;32.204;208.944
77.402.344;132.937;27.015;54.487;26.709;172.009
77.421.875;77.381;36.477;51.129;24.878;147.589
77.441.406;24.267;48.993;49.603;27.320;130.800
77.460.938;-23.046;62.118;50.824;35.256;122.863
77.480.469;-63.645;72.802;54.487;49.603;117.063
77.500.000;-92.033;79.823;58.455;66.697;114.011
77.519.531;-102.106;82.875;61.203;80.739;116.148
77.539.063;-92.643;83.486;63.339;89.286;115.537
77.558.594;-64.560;80.128;66.087;93.559;114.927
77.578.125;-20.299;72.497;69.444;95.085;120.116
77.597.656;29.151;62.729;71.581;95.696;128.053
77.617.188;70.360;55.708;72.802;98.138;133.242
77.636.719;94.780;53.266;73.413;99.664;124.389
77.656.250;101.496;55.403;73.718;98.443;90.201
77.675.781;97.833;61.813;74.328;95.391;41.056
77.695.313;95.085;69.444;75.244;93.559;0.5037
77.714.844;99.664;73.718;76.465;93.559;-0.6868
77.734.375;109.432;71.581;75.855;93.864;-0.9921
77.753.906;123.168;62.729;71.886;93.864;-11.447
77.773.438;140.873;51.435;67.308;94.170;-12.973
77.792.969;160.104;41.361;63.339;99.969;-15.415
77.812.500;174.451;34.646;59.371;108.516;-10.836
77.832.031;178.419;30.678;53.571;111.264;0.5037
77.851.563;173.840;26.709;46.245;105.159;16.636
77.871.094;169.872;19.383;36.783;91.422;20.910
77.890.625;167.430;0.9615;27.015;71.581;44.719
77.910.156;157.051;0.2289;20.910;52.656;100.580
77.929.688;135.989;0.1374;20.299;43.498;165.293
77.949.219;118.590;0.3205;22.741;42.582;214.744
77.968.750;117.674;0.3510;24.878;45.024;250.763
77.988.281;133.852;-0.0153;26.099;44.719;280.067
78.007.813;168.651;-0.9310;23.657;35.256;304.487
78.027.344;219.322;-24.267;16.331;12.973;317.918
78.046.875;255.037;-38.919;0.7479;-15.110;297.466
78.066.406;242.521;-42.582;0.3510;-39.835;250.153
78.085.938;185.134;-29.151;0.6258;-56.013;219.933
78.105.469;116.453;-0.6563;12.363;-66.087;210.775
78.125.000;60.287;13.584;17.247;-73.107;194.597
78.144.531;22.131;28.541;19.078;-80.433;179.640
78.164.063;0.1068;35.562;16.026;-90.507;188.187
78.183.594;-0.5952;36.783;0.9005;-104.243;207.418
78.203.125;-0.5037;34.646;0.0153;-120.421;211.996
78.222.656;0.0763;31.288;-0.8700;-135.379;203.755
78.242.188;0.7173;28.541;-16.331;-144.841;203.144
78.261.719;11.142;26.099;-23.046;-147.283;213.523
78.281.250;19.078;23.046;-28.541;-143.315;227.564
78.300.781;29.762;19.994;-31.899;-134.158;239.469
78.320.313;39.835;18.162;-33.120;-122.253;238.248
78.339.844;59.066;13.584;-33.425;-108.516;225.122
78.359.375;90.201;0.5037;-31.593;-91.422;211.996
78.378.906;120.421;-0.3510;-25.488;-67.918;210.470
78.398.438;140.873;-0.8089;-15.110;-36.477;220.238
78.417.969;154.609;-0.8700;-0.2289;-0.2900;230.311
78.437.500;161.020;-0.6563;11.447;25.794;223.596
78.457.031;152.167;-0.0763;23.657;47.466;194.902
78.476.563;129.884;0.7173;29.762;56.624;152.778
78.496.094;106.380;13.889;29.762;52.045;100.580
78.515.625;90.507;19.078;27.015;39.225;66.087
78.535.156;93.559;22.131;23.962;23.352;76.160
78.554.688;126.832;18.468;20.299;0.5342;113.400
78.574.219;171.093;10.836;15.110;-11.142;149.420
78.593.750;187.576;0.4426;0.9615;-23.962;169.261
78.613.281;164.377;0.2900;0.6563;-29.762;171.398
78.632.813;116.148;0.8700;0.6258;-29.457;167.735
78.652.344;61.813;20.299;0.7479;-27.320;172.009
78.671.875;12.973;32.814;0.8089;-27.320;189.408
78.691.406;-22.436;42.277;0.8089;-28.846;204.365
78.710.938;-41.972;46.856;0.8394;-28.541;198.260
78.730.469;-53.571;48.077;0.9005;-29.151;167.430
78.750.000;-63.645;47.161;0.7173;-37.393;112.790
78.769.531;-71.886;44.719;0.1984;-54.182;51.740
78.789.063;-71.581;41.361;-0.4731;-73.107;0.7784
78.808.594;-56.319;35.867;-13.278;-87.149;-14.805
78.828.125;-28.541;27.930;-21.520;-92.949;-22.131
78.847.656;0.4121;21.215;-27.320;-87.454;-10.836
78.867.188;29.762;18.773;-28.846;-70.971;18.773
78.886.719;44.719;18.468;-28.846;-51.435;48.993
78.906.250;61.508;13.889;-28.846;-34.341;68.834
78.925.781;79.823;0.2595;-31.288;-23.657;80.739
78.945.313;83.791;-11.752;-34.951;-17.857;78.602
78.964.844;69.139;-22.436;-36.783;-12.668;59.066
78.984.375;44.719;-26.404;-34.646;-0.7173;29.762
79.003.906;18.468;-25.183;-29.457;-0.3510;0.4731
79.023.438;-0.1068;-21.825;-24.878;-0.5037;-0.0763
79.042.969;-0.2595;-21.215;-23.962;-15.110;10.836
79.062.500;18.773;-27.015;-25.488;-30.067;30.067
79.082.031;56.624;-38.004;-27.930;-41.972;45.635
79.101.563;100.275;-47.466;-29.762;-47.466;53.571
79.121.094;140.263;-48.687;-29.457;-48.382;55.098
79.140.625;164.683;-40.751;-27.320;-47.466;48.993
79.160.156;174.451;-26.404;-23.962;-48.687;38.004
79.179.688;181.471;-11.142;-20.604;-53.266;27.015
79.199.219;179.945;0.1984;-19.078;-60.592;12.363
79.218.750;154.915;12.973;-19.383;-67.918;-18.468
79.238.281;119.811;19.994;-18.773;-69.444;-65.781
79.257.813;94.170;23.962;-15.720;-60.287;-107.295
79.277.344;72.192;28.236;-10.226;-42.277;-129.274
79.296.875;45.330;31.593;-0.5647;-24.267;-136.294
79.316.406;20.604;29.457;-0.5952;-17.247;-130.800
79.335.938;13.584;17.552;-12.057;-24.267;-116.758
79.355.469;24.573;0.2289;-21.215;-39.225;-106.990
79.375.000;40.751;-0.5647;-27.930;-51.740;-101.190
79.394.531;53.877;-0.3816;-29.762;-56.319;-94.170
79.414.063;61.813;0.0458;-29.151;-53.571;-96.306
79.433.594;62.118;0.1984;-28.541;-48.993;-113.095
79.453.125;52.656;-0.0458;-27.930;-44.414;-125.611
79.472.656;33.120;-0.4731;-27.015;-39.530;-124.084
79.492.188;0.5342;-0.8394;-25.183;-35.867;-116.453
79.511.719;-25.488;-0.9921;-22.741;-34.951;-99.359
79.531.250;-53.266;-10.531;-19.994;-34.951;-70.665
79.550.781;-70.971;-11.447;-17.857;-34.646;-42.277
79.570.313;-75.244;-13.278;-16.636;-35.256;-21.215
79.589.844;-64.255;-15.415;-16.331;-35.562;-0.2289
79.609.375;-41.972;-16.331;-15.110;-33.120;13.278
79.628.906;-16.331;-14.499;-12.057;-26.404;20.299
79.648.438;0.9005;-10.226;-0.8089;-16.026;16.331
79.667.969;33.425;-0.5342;-0.4121;-0.6868;0.3816
79.687.500;52.045;-0.0763;-0.1679;-0.1984;-11.142
79.707.031;59.676;0.2289;-0.1068;-0.0458;-19.078
79.726.563;56.319;0.2595;-0.1068;-0.0763;-0.6258
79.746.094;48.382;-0.1068;-0.2289;-0.4426;21.520
79.765.625;43.803;-0.8700;-0.5037;-10.226;42.888
79.785.156;45.024;-17.857;-0.7479;-15.110;47.772
79.804.688;50.519;-27.015;-0.8700;-19.689;41.056
79.824.219;55.403;-34.646;-0.8394;-25.488;35.867
79.843.750;55.098;-39.225;-0.6258;-32.509;45.635
79.863.281;51.435;-39.530;-0.2595;-37.088;56.624
79.882.813;51.129;-36.783;0.1679;-35.867;51.129
79.902.344;55.403;-31.899;0.8089;-26.404;41.361
79.921.875;59.066;-26.404;15.415;-0.9921;46.856
79.941.406;56.013;-21.825;20.910;0.5952;60.592
79.960.938;43.193;-19.078;24.573;16.026;65.476
79.980.469;23.352;-16.331;27.930;19.383;67.613
80.000.000;0.5952;-13.584;31.899;19.994;78.907
80.019.531;0.1679;-13.278;34.951;21.520;98.443
80.039.063;12.363;-12.973;39.225;27.320;118.284
80.058.594;32.814;-10.531;45.940;38.919;128.663
80.078.125;56.013;-0.6258;52.656;48.993;132.021
80.097.656;75.549;-0.1984;53.571;47.772;133.547
80.117.188;93.864;0.0458;48.993;34.035;124.084
80.136.719;104.853;0.0153;40.446;14.499;107.906
80.156.250;92.033;-0.0763;30.678;-0.3510;99.054
80.175.781;61.203;-0.1068;23.046;-15.720;88.370
80.195.313;29.457;-0.0763;17.857;-20.299;66.697
80.214.844;0.4121;-0.0153;13.584;-23.352;45.635
80.234.375;-15.110;0.1984;0.9615;-27.625;36.477
80.253.906;-30.067;0.5952;0.7479;-30.067;34.951
80.273.438;-40.140;10.836;0.7173;-29.457;40.140
80.292.969;-47.466;15.110;0.8089;-27.320;52.350
80.312.500;-51.129;18.162;10.531;-23.657;56.319
80.332.031;-44.109;19.689;15.110;-13.889;49.603
80.351.563;-25.794;18.468;21.520;0.2595;40.446
80.371.094;-0.5037;16.331;27.015;22.131;24.878
80.390.625;12.668;14.194;30.678;38.004;-0.3510
80.410.156;27.015;10.531;31.593;44.719;-23.046
80.429.688;36.477;0.5647;30.372;40.446;-0.4121
80.449.219;43.193;0.1679;28.236;30.678;41.972
80.468.750;48.687;0.0763;27.320;24.267;90.201
80.488.281;45.940;0.4121;29.762;26.404;132.631
80.507.813;33.425;10.531;35.256;36.477;164.683
80.527.344;19.994;16.331;40.446;49.298;182.082
80.546.875;0.9921;20.910;44.414;63.950;187.271
80.566.406;0.1984;25.183;48.687;79.823;187.576
80.585.938;-0.1679;28.236;51.435;94.780;187.576
