Time;Fp2-F4;F4-C4;C4-P4;P4-O2;C4-A1
82.031.250;-187.576;-143.620;-24.878;-13.584;106.990
82.050.781;-166.819;-154.304;-28.846;-20.604;76.465
82.070.313;-160.104;-157.967;-30.678;-23.046;39.530
82.089.844;-157.357;-158.272;-32.204;-23.657;-0.7784
82.109.375;-170.177;-160.104;-34.951;-27.625;-57.234
82.128.906;-198.260;-164.988;-36.477;-32.814;-86.233
82.148.438;-229.396;-167.430;-36.172;-35.867;-92.949
82.167.969;-260.226;-163.462;-33.730;-34.646;-88.065
82.187.500;-288.614;-154.609;-29.457;-29.762;-77.991
82.207.031;-315.171;-143.620;-23.962;-21.825;-64.866
82.226.563;-342.033;-132.631;-19.078;-13.584;-53.571
82.246.094;-363.095;-124.084;-16.636;-0.5952;-56.013
82.265.625;-368.284;-120.726;-16.331;-0.0458;-83.181
82.285.156;-353.632;-125.305;-18.773;0.1984;-141.789
82.304.688;-316.087;-138.126;-23.657;-0.0458;-210.775
82.324.219;-247.405;-156.746;-33.120;-0.9921;-239.774
82.343.750;-172.619;-173.840;-45.330;-21.825;-219.628
82.363.281;-137.821;-179.640;-54.182;-28.236;-175.672
82.382.813;-142.705;-175.366;-56.929;-29.457;-121.337
82.402.344;-158.272;-169.567;-56.929;-30.983;-74.328
82.421.875;-165.598;-169.567;-57.234;-35.256;-41.667
82.441.406;-139.957;-178.114;-58.150;-41.667;-0.5037
82.460.938;-72.192;-188.187;-57.540;-45.940;36.172
82.480.469;0.1068;-189.103;-54.182;-46.856;53.877
82.500.000;71.276;-186.661;-48.993;-44.414;40.140
82.519.531;189.713;-197.650;-46.551;-39.530;0.9615
82.539.063;347.527;-219.322;-47.161;-32.814;-32.204
82.558.594;433.913;-228.175;-44.414;-22.741;-80.433
82.578.125;391.178;-208.944;-35.256;-10.226;-130.495
82.597.656;262.973;-168.040;-23.657;-0.0153;-188.492
82.617.188;119.505;-123.168;-13.584;0.5342;-251.984
82.636.719;21.825;-89.591;-0.5952;0.9310;-297.466
82.656.250;-23.657;-68.834;0.0458;14.194;-306.929
82.675.781;-55.098;-52.045;0.6563;19.078;-286.477
82.695.313;-85.623;-34.951;12.668;22.436;-257.173
82.714.844;-116.148;-18.773;16.331;22.741;-222.375
82.734.375;-148.199;-0.7479;16.331;16.941;-176.893
82.753.906;-155.525;-0.5647;13.278;0.6868;-136.905
82.773.438;-123.168;-13.889;0.5647;-0.5647;-114.927
82.792.969;-63.950;-27.930;-0.5952;-21.825;-109.127
82.812.500;27.015;-46.551;-19.383;-38.919;-116.453
82.832.031;132.021;-65.476;-29.762;-48.687;-129.579
82.851.563;182.998;-74.023;-34.341;-46.245;-139.957
82.871.094;172.009;-73.413;-36.172;-37.698;-144.841
82.890.625;185.440;-82.875;-41.972;-33.425;-151.252
82.910.156;275.488;-110.348;-52.961;-38.919;-168.651
82.929.688;368.895;-135.989;-61.813;-48.077;-188.187
82.949.219;376.526;-139.042;-61.203;-48.993;-181.471
82.968.750;292.888;-115.232;-50.214;-40.751;-150.031
82.988.281;170.177;-76.770;-33.730;-27.320;-137.210
83.007.813;65.781;-43.498;-17.857;-10.531;-146.978
83.027.344;0.0153;-25.183;-0.5647;0.5342;-140.568
83.046.875;-42.582;-15.110;0.1679;12.668;-113.095
83.066.406;-82.875;-0.4121;0.5037;0.7173;-89.591
83.085.938;-117.979;0.5952;0.4121;-0.4121;-85.623
83.105.469;-130.800;0.9005;0.1374;-12.973;-95.085
83.125.000;-110.958;0.4426;-0.0458;-11.142;-101.496
83.144.531;-63.950;-0.4121;0.0458;0.2289;-95.391
83.164.063;-0.0763;-14.194;0.2595;18.773;-79.212
83.183.594;64.255;-23.657;0.3510;28.541;-67.613
83.203.125;112.790;-29.762;0.1984;28.236;-72.497
83.222.656;135.684;-33.730;-0.1984;19.383;-85.623
83.242.188;141.789;-38.919;-0.7173;0.6868;-93.864
83.261.719;144.536;-44.109;-0.9005;-0.1679;-103.022
83.281.250;139.957;-45.024;-0.7479;-0.4121;-114.621
83.300.781;128.663;-41.056;-0.5952;-0.5342;-117.674
83.320.313;139.957;-39.835;-0.7784;-10.836;-119.811
83.339.844;180.861;-49.298;-13.584;-18.773;-140.873
83.359.375;222.985;-65.476;-19.994;-23.352;-170.788
83.378.906;257.173;-79.212;-25.488;-23.352;-181.471
83.398.438;279.457;-85.012;-29.457;-21.825;-171.398
83.417.969;271.825;-80.739;-31.288;-19.078;-159.799
83.437.500;232.448;-65.781;-29.762;-13.889;-159.493
83.457.031;179.945;-43.498;-26.099;-0.7784;-167.125
83.476.563;123.474;-19.383;-21.825;-0.2289;-175.672
83.496.094;63.645;0.2595;-16.331;0.4426;-197.955
83.515.625;18.773;21.520;-0.9310;13.584;-248.321
83.535.156;-0.3510;35.867;-0.1374;24.267;-309.676
83.554.688;-19.383;44.109;0.5342;33.120;-359.127
83.574.219;-30.067;45.024;0.8394;34.951;-387.515
83.593.750;-24.878;39.225;0.9310;31.593;-380.494
83.613.281;-0.1068;29.762;10.836;29.762;-342.033
83.632.813;31.288;19.689;13.278;31.593;-310.592
83.652.344;59.676;11.447;16.636;35.562;-294.414
83.671.875;73.718;0.7784;20.910;42.277;-262.973
83.691.406;69.750;0.8089;24.573;50.214;-216.270
83.710.938;54.487;10.226;27.320;57.845;-178.419
83.730.469;39.225;12.057;29.151;64.866;-155.830
83.750.000;29.762;13.584;30.983;68.834;-145.452
83.769.531;29.457;15.720;31.593;67.613;-133.547
83.789.063;39.530;17.857;30.372;62.424;-112.485
83.808.594;61.508;17.552;28.846;57.540;-93.864
83.828.125;92.949;15.110;28.846;56.013;-71.886
83.847.656;125.305;13.278;31.593;58.455;-38.614
83.867.188;145.452;16.331;35.867;63.645;-10.531
83.886.719;146.062;24.573;40.751;71.886;0.2289
83.906.250;138.431;35.562;46.245;84.707;-0.1068
83.925.781;137.515;47.161;52.350;100.275;-21.825
83.945.313;132.937;56.624;57.540;111.874;-51.129
83.964.844;122.253;56.929;59.066;112.485;-86.844
83.984.375;120.726;45.024;55.098;102.717;-131.716
84.003.906;125.611;28.236;48.077;85.928;-185.440
84.023.438;127.747;12.668;40.140;63.950;-228.480
84.042.969;125.000;-0.0458;30.983;39.225;-233.364
84.062.500;115.232;-0.9615;22.436;17.247;-200.397
84.082.031;95.696;-12.363;18.162;0.5952;-156.441
84.101.563;67.308;-0.7173;20.604;0.8089;-126.526
84.121.094;35.867;0.4731;25.794;16.941;-112.790
84.140.625;0.8700;19.994;29.457;22.131;-98.443
84.160.156;-0.2595;34.341;29.457;22.436;-73.107
84.179.688;0.9005;42.582;27.320;19.689;-38.919
84.199.219;36.172;42.888;23.046;12.973;-12.668
84.218.750;65.476;38.919;17.857;0.5037;-0.4426
84.238.281;93.254;32.814;12.668;-0.0763;-0.4121
84.257.813;116.453;23.962;0.5952;-0.6258;-0.2595
84.277.344;129.579;13.584;-0.0763;-11.142;-0.8394
84.296.875;132.021;0.3510;-0.7784;-15.720;-16.026
84.316.406;135.684;-0.6563;-16.026;-20.604;-0.6563
84.335.938;151.252;-18.162;-26.099;-25.488;16.331
84.355.469;166.819;-26.404;-34.341;-28.846;43.803
84.375.000;161.935;-27.320;-37.393;-30.067;70.055
84.394.531;143.315;-24.573;-33.730;-27.015;87.454
84.414.063;143.620;-23.962;-25.794;-16.636;96.612
84.433.594;189.103;-29.457;-17.857;-0.1068;93.864
84.453.125;268.773;-38.309;-11.447;14.194;73.413
84.472.656;316.697;-43.193;-0.7479;23.657;30.983
84.492.188;300.214;-45.940;-0.8089;19.994;-34.646
84.511.719;268.162;-54.792;-16.636;0.1984;-113.095
84.531.250;250.763;-65.171;-27.930;-17.857;-171.398
84.550.781;228.175;-66.697;-33.120;-27.320;-187.576
84.570.313;189.408;-59.066;-30.678;-23.352;-178.114
84.589.844;141.178;-45.940;-25.183;-0.7784;-164.072
84.609.375;96.917;-32.204;-18.773;12.363;-151.862
84.628.906;59.982;-23.352;-16.331;27.320;-149.115
84.648.438;29.762;-21.520;-20.604;29.457;-150.031
84.667.969;40.140;-31.899;-30.067;18.773;-139.347
84.687.500;133.547;-58.150;-39.530;-0.0763;-133.242
84.707.031;272.436;-91.422;-43.498;-23.046;-139.957
84.726.563;342.033;-112.485;-39.225;-38.309;-119.811
84.746.094;298.077;-114.927;-28.236;-43.193;-53.877
84.765.625;206.807;-109.127;-16.636;-40.751;12.668
84.785.156;114.927;-103.327;-0.6258;-31.593;31.288
84.804.688;25.488;-98.748;0.2900;-18.162;17.552
84.824.219;17.857;-114.011;0.5037;-0.9615;0.4121
84.843.750;214.133;-174.145;-0.6868;-10.531;-24.267
84.863.281;557.234;-267.247;-29.762;-16.636;-94.170
84.882.813;841.728;-349.969;-51.435;-19.689;-197.344
84.902.344;970.238;-396.978;-64.255;-16.026;-294.109
84.921.875;980.006;-409.493;-67.308;-0.6868;-357.295
84.941.406;907.967;-391.789;-63.339;0.4426;-391.178
84.960.938;741.300;-346.306;-52.045;18.468;-399.725
84.980.469;501.679;-286.783;-34.646;39.225;-379.273
85.000.000;284.341;-233.059;-18.773;64.560;-336.233
85.019.531;154.304;-194.902;-0.9310;85.317;-284.035
85.039.063;94.475;-170.177;-0.5037;93.559;-234.280
85.058.594;45.024;-151.862;-0.3205;88.675;-189.408
85.078.125;-48.687;-129.579;-0.0458;77.076;-154.915
85.097.656;-147.589;-109.737;0.1068;63.645;-164.377
85.117.188;-154.304;-117.674;-0.3510;47.772;-235.806
85.136.719;-45.024;-163.462;-18.162;27.015;-320.055
85.156.250;187.576;-234.585;-38.309;0.5342;-364.316
85.175.781;488.553;-306.319;-56.319;-0.8394;-363.400
85.195.313;663.462;-346.001;-66.087;-15.110;-346.001
85.214.844;603.938;-338.370;-65.476;-19.078;-335.012
85.234.375;395.452;-299.908;-58.455;-22.131;-317.002
85.253.906;165.904;-258.089;-50.824;-22.436;-283.120
85.273.438;-30.983;-221.764;-42.582;-15.415;-240.995
85.292.969;-204.976;-179.029;-30.983;0.0153;-189.103
85.312.500;-355.769;-129.274;-18.162;17.247;-131.410
85.332.031;-450.092;-89.896;-10.226;29.457;-89.591
85.351.563;-426.282;-77.991;-10.836;32.509;-82.875
85.371.094;-191.850;-109.737;-23.352;26.099;-124.084
85.390.625;261.447;-185.745;-50.214;12.973;-217.491
85.410.156;713.828;-267.857;-79.823;0.0763;-335.623
85.429.688;923.230;-311.203;-96.612;-0.1068;-427.503
85.449.219;932.387;-324.023;-101.190;0.4121;-477.869
85.468.750;874.695;-327.686;-102.717;0.9921;-487.637
85.488.281;770.910;-315.781;-99.969;15.720;-450.397
85.507.813;676.587;-291.972;-94.475;21.520;-393.620
85.527.344;629.273;-268.162;-90.201;24.878;-351.801
85.546.875;530.372;-237.943;-85.317;25.794;-329.823
85.566.406;313.950;-191.850;-75.855;24.573;-310.287
85.585.938;63.950;-138.736;-62.729;21.825;-285.867
85.605.469;-105.464;-99.054;-49.603;19.689;-273.657
85.625.000;-174.451;-75.855;-38.919;21.825;-273.046
85.644.531;-180.250;-54.487;-29.151;29.457;-254.121
85.664.063;-168.956;-26.404;-19.383;38.919;-213.523
85.683.594;-189.103;0.5647;-10.531;46.551;-175.366
85.703.125;-234.585;32.814;-0.2900;52.656;-152.167
85.722.656;-261.752;45.940;0.1984;56.319;-144.536
85.742.188;-255.342;46.856;0.3816;56.624;-146.673
85.761.719;-203.144;42.888;0.2900;53.266;-161.630
85.781.250;-112.485;34.035;-0.1374;46.551;-195.513
85.800.781;-29.151;17.247;-0.9615;38.004;-236.416
85.820.313;37.393;-0.8700;-20.299;29.762;-275.488
85.839.844;137.210;-47.466;-32.814;23.046;-311.508
85.859.375;297.772;-99.359;-47.161;16.941;-338.370
85.878.906;455.281;-148.504;-59.982;12.363;-351.496
85.898.438;530.983;-176.282;-67.918;11.447;-352.411
85.917.969;544.414;-186.966;-72.497;12.973;-344.475
85.937.500;547.161;-189.713;-75.244;15.720;-329.823
85.957.031;515.110;-179.945;-73.413;21.825;-308.455
85.976.563;416.514;-153.388;-66.697;28.541;-286.172
85.996.094;274.878;-113.400;-56.929;33.730;-270.604
86.015.625;125.305;-64.866;-45.940;39.530;-270.604
86.035.156;0.0153;-17.247;-33.730;48.382;-280.372
86.054.688;-82.875;22.131;-20.910;57.845;-274.573
86.074.219;-138.126;52.656;-0.8089;63.034;-249.847
86.093.750;-178.419;74.023;0.2900;61.203;-220.543
86.113.281;-190.324;83.791;11.447;54.792;-195.208
86.132.813;-155.830;81.349;16.636;48.382;-169.567
86.152.344;-79.518;68.834;18.468;41.972;-137.515
86.171.875;11.142;52.961;19.689;38.309;-104.548
86.191.406;77.076;41.361;20.910;37.393;-79.212
86.210.938;101.190;34.951;22.436;35.256;-62.118
86.230.469;104.548;32.204;23.352;30.983;-59.676
86.250.000;100.275;35.562;23.962;26.709;-77.076
86.269.531;85.928;44.414;26.709;24.878;-104.548
86.289.063;67.308;52.656;30.067;26.709;-138.126
86.308.594;52.350;56.319;34.035;32.814;-179.335
86.328.125;42.277;57.234;38.614;42.888;-218.101
86.347.656;37.088;59.066;43.803;56.319;-239.469
86.367.188;43.803;61.203;48.993;71.886;-248.016
86.386.719;63.034;63.034;53.266;88.370;-259.921
86.406.250;79.518;66.087;54.487;101.496;-274.878
86.425.781;95.391;67.613;52.656;106.380;-282.814
86.445.313;144.231;64.255;49.603;104.548;-281.593
86.464.844;230.617;57.540;45.024;101.190;-264.499
86.484.375;302.961;51.740;40.140;99.054;-237.027
86.503.906;314.255;52.656;34.341;97.222;-222.375
86.523.438;259.615;62.424;27.930;92.949;-225.427
86.542.969;172.619;76.770;21.520;86.233;-247.405
86.562.500;98.443;89.896;16.331;80.739;-292.582
86.582.031;52.045;100.275;16.026;84.707;-339.286
86.601.563;14.194;111.264;21.825;98.443;-355.159
86.621.094;-31.899;123.168;31.288;115.232;-335.623
86.640.625;-80.433;133.852;41.056;126.526;-306.013
86.660.156;-121.642;141.484;46.551;125.305;-276.099
86.679.688;-151.862;144.841;48.077;114.621;-234.585
86.699.219;-169.567;146.062;48.993;103.632;-180.556
86.718.750;-171.398;146.673;50.519;93.254;-124.695
86.738.281;-151.557;139.652;48.382;79.518;-67.918
86.757.813;-116.148;124.389;41.667;63.034;-10.836
86.777.344;-76.465;110.348;35.867;47.772;27.930
86.796.875;-37.393;104.243;34.646;38.309;32.204
86.816.406;-0.8700;105.159;38.004;35.867;19.078
86.835.938;-0.0153;112.485;44.414;41.361;0.9310
86.855.469;-0.3510;124.084;53.266;56.624;-11.752
86.875.000;0.8394;135.379;61.813;80.128;-64.255
86.894.531;48.382;143.620;69.139;107.601;-139.652
86.914.063;88.675;148.504;74.634;132.631;-211.386
86.933.594;97.527;150.946;76.160;147.589;-249.237
86.953.125;72.192;151.557;71.886;148.810;-244.353
86.972.656;30.372;149.115;61.813;135.989;-215.354
86.992.188;-0.8700;139.042;48.077;111.264;-176.282
87.011.719;-21.520;120.116;34.646;83.181;-132.021
87.031.250;0.3205;96.612;24.267;58.761;-96.001
87.050.781;30.983;75.244;16.941;41.056;-72.497
87.070.313;22.741;62.424;13.584;31.288;-45.940
87.089.844;-0.8394;59.982;15.720;26.709;-21.825
87.109.375;-31.593;62.424;23.046;26.099;-23.657
87.128.906;-49.908;65.781;33.425;28.846;-37.393
87.148.438;-74.939;67.002;45.024;35.562;-25.183
87.167.969;-91.422;64.560;55.708;48.077;13.889
87.187.500;-93.559;64.560;66.392;65.781;50.519
87.207.031;-93.254;73.107;77.381;82.875;56.013
87.226.563;-94.780;85.623;86.233;94.780;32.814
87.246.094;-97.527;94.780;89.591;98.138;25.794
87.265.625;-98.748;98.748;86.844;93.559;57.845
87.285.156;-98.138;101.190;80.128;87.454;92.949
87.304.688;-91.117;104.853;73.718;84.707;99.664
87.324.219;-75.855;109.737;70.665;85.623;102.411
87.343.750;-58.455;116.758;71.886;87.759;134.463
87.363.281;-35.562;122.558;74.634;89.591;177.808
87.382.813;20.299;119.200;74.939;88.370;204.365
87.402.344;108.822;105.159;71.886;85.623;211.386
87.421.875;178.114;89.286;68.223;83.486;198.260
87.441.406;212.607;72.497;64.866;82.875;171.703
87.460.938;247.100;46.551;58.761;82.265;142.399
87.480.469;275.794;20.299;51.129;81.960;107.295
87.500.000;262.363;14.805;47.161;81.654;65.476
87.519.531;203.755;33.120;46.551;78.297;27.320
87.539.063;145.452;56.624;43.803;70.360;-0.4426
87.558.594;180.556;58.455;35.867;64.560;-46.245
87.578.125;331.044;30.678;25.183;66.392;-85.623
87.597.656;456.502;0.1374;19.689;81.349;-96.917
87.617.188;438.187;-0.1679;26.099;109.432;-85.317
87.636.719;322.497;19.383;40.446;141.178;-55.098
87.656.250;209.860;46.245;54.182;157.662;-0.5952
87.675.781;143.315;64.866;61.813;152.167;50.214
87.695.313;105.769;75.855;64.560;135.379;103.022
87.714.844;78.907;86.844;67.002;120.116;143.620
87.734.375;51.740;101.496;72.192;110.653;151.557
87.753.906;0.5037;118.284;78.602;103.327;110.958
87.773.438;-46.551;129.579;81.349;90.201;52.656
87.792.969;-73.718;129.884;78.297;66.392;27.930
87.812.500;-61.813;118.895;70.055;33.730;35.562
87.832.031;0.0153;99.664;60.287;-0.0153;47.772
87.851.563;83.486;81.044;53.266;-26.099;63.034
87.871.094;124.695;73.413;52.350;-36.172;87.454
87.890.625;109.737;76.160;58.455;-29.151;123.474
87.910.156;78.297;81.654;69.750;-0.8700;160.714
87.929.688;59.676;84.402;82.265;16.026;175.366
87.949.219;62.118;80.739;91.117;34.646;163.767
87.968.750;85.623;69.750;94.475;45.330;148.199
87.988.281;122.863;58.761;94.475;52.656;138.736
88.007.813;168.956;51.740;94.475;60.287;115.842
88.027.344;222.680;44.414;94.780;69.444;61.203
88.046.875;331.960;23.046;94.475;79.823;-16.331
88.066.406;597.222;-29.151;88.675;89.286;-86.538
88.085.938;955.281;-97.527;79.518;96.612;-115.537
88.105.469;1.146.062;-132.021;77.381;104.853;-96.612
88.125.000;1.047.772;-107.295;88.980;116.758;-57.845
88.144.531;767.247;-43.803;108.516;128.053;-26.404
88.164.063;445.208;26.709;124.084;127.747;0.5037
88.183.594;163.156;84.707;131.105;114.621;46.551
88.203.125;-59.676;124.389;130.495;96.306;84.707
88.222.656;-232.753;151.862;125.916;81.044;110.958
88.242.188;-338.675;172.924;123.168;71.886;135.684
88.261.719;-366.453;187.882;124.389;66.087;162.241
88.281.250;-361.569;194.902;125.916;59.982;174.756
88.300.781;-332.265;186.355;124.084;50.824;162.851
88.320.313;-220.238;157.967;117.063;37.698;127.137
88.339.844;-66.087;122.253;105.464;21.520;85.317
88.359.375;13.278;99.664;97.222;0.7784;59.066
88.378.906;0.5647;95.085;96.612;-0.1679;45.940
88.398.438;-30.372;100.885;99.359;-12.057;29.762
88.417.969;-62.729;104.853;98.443;-22.436;-12.973
88.437.500;-71.886;97.222;92.338;-30.983;-68.834
88.457.031;-50.824;78.907;83.181;-36.783;-79.212
88.476.563;-25.794;55.708;73.718;-37.088;-45.024
88.496.094;-20.604;30.678;65.781;-32.814;-14.194
88.515.625;-40.446;0.7173;60.287;-27.015;0.1068
88.535.156;-73.413;-0.7479;57.845;-24.267;0.8394
88.554.688;-91.422;-0.9921;57.540;-26.099;0.2289
88.574.219;-90.201;-0.5647;57.845;-28.541;-32.814
88.593.750;-97.222;-0.0153;57.845;-27.930;-82.570
88.613.281;-128.053;11.142;58.455;-20.604;-92.949
88.632.813;-164.683;31.288;61.203;-0.7173;-50.519
88.652.344;-175.672;52.045;63.034;0.5342;0.1679
88.671.875;-177.198;70.055;63.950;14.194;33.730
88.691.406;-200.092;87.759;64.560;19.994;43.193
88.710.938;-218.101;102.411;65.476;21.520;37.393
88.730.469;-200.702;112.485;66.392;18.468;19.689
88.750.000;-173.840;117.979;65.171;13.278;-0.9005
88.769.531;-157.357;117.674;61.508;0.6563;-54.487
88.789.063;-126.526;109.432;56.929;0.1679;-115.842
88.808.594;-91.422;99.969;52.961;0.2900;-158.883
88.828.125;-108.516;99.359;48.382;0.5342;-157.051
88.847.656;-186.966;106.990;42.888;0.1068;-135.379
88.867.188;-282.814;114.927;36.783;-0.7479;-126.526
88.886.719;-357.906;117.674;30.372;-16.636;-129.579
88.906.250;-390.568;112.485;23.962;-25.183;-129.579
88.925.781;-364.316;98.138;17.247;-28.236;-118.284
88.945.313;-283.425;77.381;10.836;-22.436;-91.117
88.964.844;-193.681;56.319;0.4731;-12.973;-57.540
88.984.375;-128.358;39.835;0.0458;-0.6563;-42.277
89.003.906;-83.486;27.320;-0.1068;-0.5647;-57.845
89.023.438;-66.392;16.636;-0.1679;-0.7479;-81.654
89.042.969;-59.982;0.7784;-0.2900;-12.668;-92.033
89.062.500;-13.889;-0.1679;-0.8394;-24.573;-104.243
89.082.031;64.866;-13.278;-17.247;-43.498;-124.389
89.101.563;121.032;-17.552;-25.183;-60.897;-135.684
89.121.094;120.421;-0.6258;-26.099;-71.276;-127.137
89.140.625;65.171;17.247;-20.604;-71.581;-96.917
89.160.156;-17.247;41.972;-12.668;-65.476;-58.455
89.179.688;-98.748;59.676;-0.6563;-59.982;-31.593
89.199.219;-177.503;73.413;-0.2595;-56.624;-15.415
89.218.750;-261.752;88.980;0.2289;-53.266;11.142
89.238.281;-344.475;106.685;0.8700;-49.603;43.193
89.257.813;-409.493;121.947;14.499;-46.245;44.414
89.277.344;-450.397;130.800;18.162;-43.803;10.531
89.296.875;-471.764;131.105;19.689;-42.277;-29.762
89.316.406;-469.322;126.221;21.215;-37.393;-55.708
89.335.938;-431.166;116.148;21.825;-28.236;-61.508
89.355.469;-359.737;99.969;16.636;-19.689;-46.245
89.375.000;-276.404;80.433;0.5647;-16.331;-14.805
89.394.531;-208.028;61.813;-0.4121;-17.857;21.825
89.414.063;-166.209;45.940;-0.9615;-21.215;55.403
89.433.594;-144.841;34.341;-12.057;-23.352;79.518
89.453.125;-137.210;32.204;-11.447;-17.552;95.391
89.472.656;-138.431;38.004;-0.6258;0.0763;105.769
89.492.188;-131.410;39.835;0.0153;27.930;100.580
89.511.719;-97.222;26.404;0.1068;51.129;75.244
89.531.250;-0.6258;-0.9615;-0.8089;56.624;42.277
89.550.781;170.788;-78.907;-27.930;40.751;0.2289
89.570.313;382.937;-166.209;-49.298;13.278;-57.234
89.589.844;519.689;-224.512;-59.982;-10.836;-125.000
89.609.375;512.973;-220.238;-52.656;-23.962;-157.357
89.628.906;369.811;-164.988;-30.983;-27.015;-136.600
89.648.438;143.010;-88.980;-0.5952;-28.846;-101.496
89.667.969;-108.822;-14.805;16.026;-36.172;-77.076
89.687.500;-341.422;48.993;35.562;-46.551;-44.719
89.707.031;-527.320;100.885;52.045;-59.982;0.5952
89.726.563;-654.609;138.431;62.424;-74.939;61.508
89.746.094;-723.901;160.714;66.392;-81.654;105.159
89.765.625;-739.774;168.956;66.392;-69.750;121.947
89.785.156;-701.923;163.462;63.034;-42.582;98.443
89.804.688;-620.727;145.757;56.624;-0.9921;39.530
89.824.219;-523.352;121.642;47.466;16.636;-16.026
89.843.750;-430.861;94.780;34.951;30.067;-45.024
89.863.281;-356.990;67.918;22.741;35.256;-66.697
89.882.813;-314.255;45.940;14.499;37.698;-80.128
89.902.344;-303.571;31.899;10.226;37.393;-67.613
89.921.875;-297.161;25.183;0.9005;33.120;-49.298
89.941.406;-266.331;23.352;10.226;24.878;-54.487
89.960.938;-229.701;23.962;12.363;13.584;-74.634
89.980.469;-217.491;25.488;14.499;0.1374;-79.823
90.000.000;-233.364;30.067;17.247;-0.9005;-64.866
90.019.531;-263.584;37.088;20.910;-19.383;-39.225
90.039.063;-291.667;42.888;23.962;-29.457;0.6563
90.058.594;-306.013;42.888;25.183;-35.867;69.139
90.078.125;-301.129;35.256;23.962;-39.225;116.453
90.097.656;-279.457;23.046;21.825;-43.498;115.537
90.117.188;-266.026;15.415;20.299;-49.298;77.381
90.136.719;-287.698;22.741;22.436;-52.961;51.740
90.156.250;-331.960;39.835;27.320;-50.824;59.676
90.175.781;-361.874;53.877;31.593;-45.635;70.360
90.195.313;-363.400;59.371;33.120;-43.803;59.371
90.214.844;-350.275;59.676;33.730;-46.856;48.382
90.234.375;-336.538;56.319;36.172;-49.603;56.013
90.253.906;-325.244;52.656;41.667;-47.161;67.308
90.273.438;-314.255;50.214;47.772;-34.951;77.991
90.292.969;-286.172;47.772;51.129;-15.720;103.632
90.312.500;-222.680;41.056;49.908;0.1068;142.399
90.332.031;-136.600;29.151;46.551;11.752;174.145
90.351.563;-71.276;17.857;44.719;18.468;180.861
90.371.094;-57.845;13.278;45.635;25.488;162.241
90.390.625;-85.012;15.110;48.382;32.814;138.736
90.410.156;-120.116;21.215;50.519;38.004;120.421
90.429.688;-146.673;28.846;48.077;40.446;93.254
90.449.219;-159.799;35.867;39.225;44.719;52.656
90.468.750;-151.862;39.530;25.488;51.740;0.4426
90.488.281;-140.873;41.361;12.363;58.150;-38.919
90.507.813;-153.388;45.024;0.1984;59.676;-65.781
90.527.344;-201.313;50.824;-0.5952;55.708;-77.991
90.546.875;-271.825;53.266;-13.278;47.161;-91.728
90.566.406;-328.907;49.603;-19.994;36.477;-116.148
90.585.938;-335.317;40.446;-24.878;24.573;-144.231
90.605.469;-272.436;25.183;-30.372;10.836;-168.040
90.625.000;-172.619;0.3205;-37.393;-0.1679;-172.009
90.644.531;-90.507;-22.131;-42.582;-10.226;-152.778
90.664.063;-54.487;-43.193;-43.193;-14.805;-141.178
90.683.594;-68.529;-49.298;-40.446;-16.331;-147.589
90.703.125;-109.432;-41.056;-36.783;-16.331;-144.231
90.722.656;-138.431;-28.541;-34.951;-16.026;-121.032
90.742.188;-128.663;-19.689;-35.256;-14.499;-89.286
90.761.719;-50.824;-17.247;-36.783;-10.531;-55.403
90.781.250;93.559;-21.215;-38.309;-0.3816;-21.520
90.800.781;204.060;-25.488;-38.004;0.5647;0.5952
90.820.313;195.818;-19.383;-33.120;16.026;17.552
90.839.844;111.264;0.0153;-24.878;24.573;0.1374
90.859.375;16.331;27.930;-16.026;30.067;-44.719
90.878.906;-80.739;60.897;-0.6563;35.256;-103.327
90.898.438;-182.998;96.306;0.4121;41.972;-151.862
90.917.969;-264.499;127.747;14.805;49.298;-186.050
90.937.500;-321.581;147.894;22.741;54.487;-200.397
90.957.031;-378.663;157.357;26.709;55.708;-182.998
90.976.563;-435.745;157.662;27.625;53.571;-143.315
90.996.094;-480.006;154.304;26.404;50.519;-116.453
91.015.625;-500.763;152.167;25.488;50.519;-113.706
91.035.156;-490.995;149.725;24.573;50.519;-114.621
91.054.688;-461.081;142.399;20.604;44.414;-116.148
91.074.219;-423.230;127.747;10.836;31.899;-128.663
91.093.750;-373.474;109.737;-0.2289;17.247;-132.021
91.113.281;-301.435;95.391;-14.805;0.5647;-111.569
91.132.813;-232.143;89.896;-23.352;0.0458;-81.960
91.152.344;-215.659;95.085;-28.846;0.2595;-53.571
91.171.875;-251.679;107.295;-32.509;0.9615;-28.236
91.191.406;-296.245;121.337;-35.562;18.468;-10.531
91.210.938;-322.802;133.547;-37.393;24.573;0.2289
91.230.469;-327.686;141.178;-38.919;27.625;38.614
91.250.000;-317.002;143.620;-41.972;30.372;102.106
91.269.531;-302.350;142.399;-45.635;33.730;150.336
91.289.063;-294.109;140.568;-45.940;35.256;156.746
91.308.594;-296.856;142.094;-42.888;34.646;123.779
91.328.125;-306.929;147.589;-38.919;34.341;70.665
91.347.656;-316.392;155.830;-35.562;35.562;38.004
91.367.188;-318.529;165.598;-30.983;39.835;45.024
91.386.719;-309.982;173.840;-25.488;45.940;74.939
91.406.250;-293.498;179.335;-19.994;50.519;98.138
91.425.781;-271.215;182.692;-16.941;48.687;88.065
91.445.313;-243.132;184.829;-16.636;41.667;57.234
91.464.844;-213.828;186.966;-17.552;34.035;47.466
91.484.375;-187.576;190.324;-19.078;29.762;72.192
91.503.906;-168.956;193.987;-20.604;29.151;111.569
91.523.438;-159.799;198.260;-22.436;29.151;142.094
91.542.969;-154.609;203.144;-25.794;26.709;150.031
91.562.500;-144.536;207.723;-29.762;20.299;131.105
91.582.031;-125.305;210.165;-32.204;12.973;82.570
91.601.563;-96.917;211.081;-32.814;0.6563;21.825
91.621.094;-67.613;211.386;-32.509;0.1374;-13.584
91.640.625;-42.582;210.470;-32.204;-0.2595;-10.226
91.660.156;-13.889;204.670;-31.593;-0.4731;20.910
91.679.688;29.457;194.902;-29.457;-0.2289;44.719
91.699.219;82.570;184.829;-26.099;0.4426;32.814
91.718.750;117.063;177.503;-23.352;11.752;17.857
91.738.281;112.485;173.840;-23.352;14.805;34.951
91.757.813;75.549;173.840;-27.015;15.110;68.529
91.777.344;26.099;176.587;-30.983;15.415;89.286
91.796.875;-0.8700;179.029;-32.509;17.857;87.149
91.816.406;-0.7479;175.672;-31.593;20.910;62.118
91.835.938;19.078;167.125;-29.457;23.657;32.204
91.855.469;51.129;155.830;-27.930;25.183;23.962
91.875.000;91.422;144.841;-28.236;27.015;35.867
91.894.531;123.474;143.010;-27.930;30.372;49.603
91.914.063;107.295;157.051;-24.267;35.256;57.845
91.933.594;44.109;179.335;-17.247;42.277;52.656
91.953.125;-34.646;200.397;-0.9310;50.824;30.372
91.972.656;-111.874;218.101;-0.1374;59.066;17.247
91.992.188;-174.756;232.143;0.4426;64.866;34.951
92.011.719;-219.322;240.690;0.9005;67.613;72.497
92.031.250;-245.574;242.521;12.363;68.223;112.179
92.050.781;-252.595;240.079;14.499;65.476;136.905
92.070.313;-246.184;232.753;13.278;57.540;142.705
92.089.844;-234.890;220.238;10.226;46.856;130.495
92.109.375;-219.933;204.060;0.8700;38.614;101.190
92.128.906;-172.924;182.998;0.8700;34.341;72.497
92.148.438;-79.212;159.188;0.8394;31.288;56.013
92.167.969;0.7479;139.957;0.5647;28.236;44.414
92.187.500;41.056;131.410;0.2595;25.488;39.530
92.207.031;48.382;132.326;0.0153;25.183;44.414
92.226.563;64.866;138.126;-0.1679;26.709;49.298
92.246.094;66.087;146.673;-0.4121;30.983;57.845
92.265.625;25.183;156.136;-0.5647;36.783;75.855
92.285.156;-30.067;162.241;-0.6868;41.361;98.748
92.304.688;-63.645;162.546;-0.8700;43.803;119.505
92.324.219;-68.223;157.051;-10.531;45.635;129.884
92.343.750;-55.403;150.336;-10.226;48.687;131.716
92.363.281;-45.635;148.810;-0.5952;53.571;136.905
92.382.813;-56.319;153.999;0.1068;59.371;154.915
92.402.344;-85.317;162.851;0.9005;65.476;178.114
92.421.875;-117.979;171.093;15.110;71.276;193.987
92.441.406;-145.452;176.893;17.857;75.855;200.397
92.460.938;-163.767;179.945;17.247;78.602;198.565
92.480.469;-172.009;182.082;15.110;81.654;182.082
92.500.000;-171.398;186.355;13.278;85.317;157.662
92.519.531;-163.767;193.681;13.889;88.370;148.504
92.539.063;-150.336;201.313;16.941;88.980;159.799
92.558.594;-131.716;206.197;21.215;85.623;185.745
92.578.125;-109.737;204.976;22.741;78.602;221.154
92.597.656;-87.149;197.039;18.468;69.750;250.763
92.617.188;-67.002;184.524;0.9310;57.845;259.310
92.636.719;-49.298;170.177;-0.0153;41.972;239.164
92.656.250;-35.562;158.272;-0.7784;26.099;201.618
92.675.781;-30.372;152.778;-12.363;12.973;163.462
92.695.313;-36.477;153.999;-14.805;0.2900;127.137
92.714.844;-50.824;157.967;-16.331;-0.4426;106.990
92.734.375;-65.171;162.851;-16.331;-0.9921;116.148
92.753.906;-73.413;168.651;-16.331;-13.584;151.557
92.773.438;-71.886;175.061;-17.247;-15.110;198.871
92.792.969;-57.234;179.945;-18.773;-15.110;224.206
92.812.500;-30.372;183.303;-20.604;-13.889;230.311
92.832.031;0.0458;186.050;-20.299;-11.447;250.763
92.851.563;27.930;188.492;-16.941;-0.7784;282.204
92.871.094;46.551;190.324;-11.752;-0.3816;295.635
92.890.625;55.098;192.460;-0.5342;0.2900;281.288
92.910.156;55.098;195.513;0.1374;14.194;253.816
92.929.688;50.519;198.260;0.6868;25.794;230.617
92.949.219;50.214;197.344;0.6868;30.372;200.397
92.968.750;54.182;194.597;0.1374;26.709;158.272
92.988.281;55.708;193.071;-0.2289;19.994;132.326
93.007.813;56.929;193.987;0.0153;13.889;123.779
93.027.344;63.645;194.902;0.8089;0.8700;117.063
93.046.875;75.549;195.818;18.468;0.5342;119.200
93.066.406;86.538;196.429;26.709;0.5952;153.694
93.085.938;92.033;196.734;30.372;13.584;226.038
93.105.469;96.612;193.987;28.541;25.183;307.845
93.125.000;107.295;189.103;22.741;35.256;370.116
93.144.531;122.558;186.661;16.026;41.972;406.136
93.164.063;137.210;186.050;0.8394;47.772;417.430
93.183.594;145.147;183.608;-0.0763;53.571;405.220
93.203.125;140.263;180.861;-10.836;61.203;374.695
93.222.656;128.053;179.029;-18.773;69.750;330.739
93.242.188;116.453;179.029;-22.436;77.991;281.593
93.261.719;109.432;180.556;-21.215;84.707;238.248
93.281.250;122.558;176.282;-18.468;86.538;206.807
93.300.781;173.230;161.935;-16.026;82.570;181.777
93.320.313;252.900;146.673;-12.057;75.855;147.283
93.339.844;317.002;140.568;-0.4426;70.055;101.190
93.359.375;318.834;143.010;0.4121;65.476;70.971
93.378.906;264.805;150.641;10.836;63.645;82.875
93.398.438;215.659;158.578;14.499;65.781;114.011
93.417.969;201.923;164.377;16.331;70.055;129.884
93.437.500;186.050;169.872;16.636;74.634;143.010
93.457.031;144.231;177.198;14.805;77.381;168.651
93.476.563;95.696;184.219;0.8394;74.634;191.239
93.496.094;50.519;187.576;-0.0458;65.476;208.639
93.515.625;0.4731;187.271;-0.6868;54.792;223.291
93.535.156;-35.562;183.608;-0.7784;47.772;235.501
93.554.688;-56.319;175.672;-0.5952;45.940;252.595
93.574.219;-49.298;163.156;-0.5037;49.603;273.352
93.593.750;-12.057;148.810;-0.4731;57.540;292.582
93.613.281;44.719;136.905;-0.5037;66.392;308.761
93.632.813;95.391;127.442;-0.4731;73.107;310.897
93.652.344;130.800;117.674;-0.3510;77.381;293.498
93.671.875;159.799;105.464;0.0153;81.349;265.415
93.691.406;181.471;95.085;0.4731;86.844;241.911
93.710.938;193.071;88.675;0.8089;91.728;231.532
93.730.469;192.766;82.875;0.7173;92.033;233.669
93.750.000;182.692;75.549;0.2595;88.370;237.637
93.769.531;176.587;69.139;-0.3816;83.791;230.311
93.789.063;181.166;66.087;-0.9615;80.433;215.659
93.808.594;186.050;67.918;-13.584;78.907;208.028
93.828.125;181.166;74.634;-14.499;78.602;209.554
93.847.656;172.314;82.265;-13.889;79.518;219.017
93.867.188;166.819;86.844;-12.668;82.570;230.617
93.886.719;163.767;91.728;-12.363;84.707;233.974
93.906.250;154.915;100.580;-12.668;83.181;224.817
93.925.781;143.010;112.179;-13.889;78.297;206.502
93.945.313;145.757;121.337;-15.415;71.581;189.713
93.964.844;162.851;126.526;-16.331;65.171;183.608
93.984.375;168.956;130.189;-15.415;58.150;192.766
94.003.906;161.325;132.631;-13.584;50.519;214.133
94.023.438;152.778;132.021;-11.752;43.193;234.890
94.042.969;146.978;129.274;-0.9921;35.867;244.048
94.062.500;141.789;126.526;-0.7784;27.930;241.911
94.082.031;133.242;123.779;-0.4731;20.910;235.195
94.101.563;120.421;119.811;-0.1984;14.499;222.375
94.121.094;107.906;113.706;0.0153;0.8089;197.039
94.140.625;101.190;108.516;0.2595;0.1679;165.904
94.160.156;104.548;101.496;0.3510;-0.4121;134.158
94.179.688;127.747;85.928;-0.2289;-10.531;82.265
94.199.219;175.061;61.508;-14.499;-18.773;0.5952
94.218.750;235.195;38.309;-26.404;-27.015;-43.193
94.238.281;280.678;26.099;-33.120;-34.035;-34.951
94.257.813;284.646;29.151;-34.646;-39.530;-0.7479
94.277.344;250.153;43.498;-33.730;-43.803;0.9310
94.296.875;200.092;60.592;-30.983;-46.551;30.372
94.316.406;147.894;76.465;-26.709;-44.719;53.877
94.335.938;99.664;90.201;-20.299;-38.614;66.392
94.355.469;61.813;99.969;-12.973;-31.899;81.044
94.375.000;38.919;106.380;-0.6563;-26.709;106.074
94.394.531;32.204;109.432;-0.1374;-22.131;124.695
94.414.063;40.751;108.516;0.1374;-19.078;119.200
94.433.594;57.845;104.853;0.3510;-18.468;93.559
94.453.125;74.939;101.190;0.5647;-17.857;73.718
94.472.656;88.370;96.001;0.8700;-16.026;60.897
94.492.188;102.717;88.675;11.142;-12.973;36.477
94.511.719;121.032;79.212;12.668;-0.9615;11.752
94.531.250;141.178;67.613;12.668;-0.6868;0.3205
94.550.781;157.051;56.013;10.836;-0.5952;0.3816
94.570.313;161.020;47.772;0.7479;-0.4731;0.5342
94.589.844;152.778;42.888;0.2900;-0.3816;0.7479
94.609.375;139.957;40.751;-0.1984;-0.5952;27.625
94.628.906;130.495;40.446;-0.7173;-10.531;61.203
94.648.438;126.832;41.361;-12.668;-14.805;72.802
94.667.969;128.968;43.803;-17.857;-18.162;60.592
94.687.500;132.937;48.077;-22.436;-20.910;50.824
94.707.031;133.547;53.266;-26.404;-20.604;50.214
94.726.563;128.053;57.845;-28.541;-17.247;56.319
94.746.094;120.726;61.813;-27.625;-14.499;68.834
94.765.625;117.063;66.392;-25.794;-14.499;80.739
94.785.156;119.200;71.581;-23.352;-16.636;76.770
94.804.688;125.611;75.855;-20.299;-18.773;58.761
94.824.219;131.105;80.433;-16.026;-20.910;37.088
94.843.750;134.463;83.791;-11.447;-24.267;11.752
94.863.281;137.210;84.402;-0.7784;-29.457;-23.962
94.882.813;142.094;83.791;-0.6258;-35.256;-70.665
94.902.344;147.283;85.317;-0.6868;-40.446;-99.969
94.921.875;150.641;88.065;-0.8394;-44.719;-91.728
94.941.406;151.557;89.896;-11.447;-47.161;-62.729
94.960.938;149.420;90.201;-14.499;-46.856;-19.383
94.980.469;144.231;89.286;-16.941;-45.330;32.204
95.000.000;138.431;85.623;-19.994;-44.414;62.729
95.019.531;133.547;79.212;-25.183;-43.193;63.950
95.039.063;127.747;73.718;-30.067;-39.225;59.066
95.058.594;122.863;68.834;-31.899;-33.730;68.529
95.078.125;120.726;63.950;-31.899;-30.678;89.896
95.097.656;121.642;59.066;-32.509;-30.372;108.211
95.117.188;123.779;54.792;-34.341;-30.983;113.400
95.136.719;125.000;52.045;-35.256;-30.983;104.853
95.156.250;122.863;50.519;-34.951;-30.678;90.812
95.175.781;119.505;51.435;-31.593;-28.541;74.939
95.195.313;120.421;54.182;-25.488;-21.520;47.161
95.214.844;128.663;58.761;-17.247;-10.531;11.447
95.234.375;143.620;66.697;-0.6563;0.1679;-11.447
95.253.906;165.598;77.686;0.5647;12.363;-20.910
95.273.438;188.187;87.454;16.636;20.299;-14.194
95.292.969;201.923;92.338;22.436;25.488;12.057
95.312.500;201.007;91.117;22.741;25.183;32.204
95.332.031;187.271;87.454;21.825;19.078;38.919
95.351.563;169.872;84.096;21.825;12.973;57.234
95.371.094;154.915;81.044;21.825;10.836;84.096
95.390.625;144.841;77.076;17.857;0.8700;101.496
95.410.156;141.789;72.497;0.9615;0.3510;114.927
95.429.688;144.536;67.918;-0.0458;-0.2900;129.274
95.449.219;150.031;63.034;-11.142;-0.9921;136.905
95.468.750;157.051;54.792;-23.352;-19.383;131.410
95.488.281;165.293;43.193;-38.004;-31.593;110.958
95.507.813;168.346;31.593;-50.214;-42.582;85.623
95.527.344;164.072;24.573;-56.013;-49.908;63.034
95.546.875;160.104;22.131;-58.455;-59.371;39.225
95.566.406;160.409;22.741;-59.982;-71.581;16.331
95.585.938;162.241;25.183;-58.150;-79.518;0.6868
95.605.469;163.767;28.541;-52.045;-78.602;0.9310
95.625.000;164.988;31.899;-43.193;-70.360;12.668
95.644.531;165.598;35.256;-34.341;-57.540;14.805
95.664.063;165.904;38.004;-27.930;-45.635;18.468
95.683.594;168.651;39.530;-25.183;-38.004;33.425
95.703.125;176.587;39.530;-25.488;-34.341;55.098
95.722.656;192.460;37.698;-26.709;-34.035;62.424
95.742.188;213.828;36.477;-26.709;-35.562;52.656
95.761.719;232.448;36.172;-27.015;-34.646;31.899
95.781.250;242.521;33.425;-27.930;-28.236;12.057
95.800.781;255.342;27.015;-27.625;-19.078;11.142
95.820.313;271.520;19.689;-26.709;-13.278;23.962
95.839.844;268.162;15.720;-27.320;-12.973;35.562
95.859.375;238.553;15.110;-30.372;-17.247;54.792
95.878.906;199.481;16.636;-35.256;-25.794;80.128
95.898.438;167.735;17.552;-40.751;-36.783;84.096
95.917.969;155.525;15.415;-45.940;-48.382;61.203
95.937.500;161.020;11.447;-51.435;-59.371;43.193
95.957.031;166.209;10.226;-54.792;-67.002;46.551
95.976.563;156.136;13.584;-53.571;-70.971;55.403
95.996.094;141.789;16.636;-49.908;-72.497;60.287
96.015.625;143.010;13.889;-47.161;-73.413;71.276
96.035.156;167.125;0.4121;-47.772;-73.107;76.160
96.054.688;207.112;-0.8394;-50.519;-72.192;48.993
96.074.219;243.742;-18.773;-54.182;-70.665;0.5342
96.093.750;268.773;-24.267;-56.319;-68.223;-26.099
96.113.281;295.330;-28.846;-57.540;-66.392;-48.077
96.132.813;323.107;-30.372;-57.845;-64.255;-63.339
96.152.344;329.212;-22.741;-56.013;-59.982;-65.171
96.171.875;311.508;-0.9921;-55.403;-56.929;-67.918
96.191.406;295.330;-0.3816;-60.287;-59.371;-81.044
96.210.938;299.908;-11.447;-70.055;-65.781;-92.643
96.230.469;328.907;-30.067;-79.823;-71.886;-92.643
96.250.000;389.347;-52.350;-87.149;-75.244;-73.107
96.269.531;476.954;-69.444;-91.117;-74.634;-45.635
96.289.063;538.614;-68.834;-89.286;-68.834;-33.120
96.308.594;522.436;-45.330;-79.823;-57.845;-30.372
96.328.125;454.670;-0.8700;-66.087;-47.161;-21.520
96.347.656;385.073;24.573;-53.266;-40.446;-0.9005
96.367.188;310.897;47.772;-46.245;-34.035;0.2289
96.386.719;221.764;59.676;-44.719;-25.183;13.889
96.406.250;144.536;63.645;-47.161;-16.636;12.363
96.425.781;112.179;62.424;-52.656;-11.752;-16.026
96.445.313;108.822;57.540;-59.982;-11.752;-52.961
96.464.844;96.306;47.466;-67.613;-14.194;-69.139
96.484.375;73.718;27.930;-75.549;-16.331;-67.613
96.503.906;70.971;-0.1068;-84.402;-15.720;-66.392
96.523.438;108.822;-38.919;-94.170;-13.278;-70.055
96.542.969;179.640;-77.991;-103.632;-0.9005;-72.802
96.562.500;273.046;-106.074;-109.127;-0.3510;-62.118
96.582.031;367.369;-115.232;-109.432;0.0153;-38.614
96.601.563;403.999;-104.548;-104.853;0.0763;-27.930
96.621.094;358.211;-76.770;-96.306;0.1679;-29.762
96.640.625;276.099;-42.888;-86.233;0.4121;-28.541
96.660.156;213.828;-18.162;-79.823;0.5037;-27.625
96.679.688;184.219;-0.7479;-77.686;0.5647;-26.709
96.699.219;171.093;-0.6563;-76.465;0.7479;-19.994
96.718.750;168.040;-0.8089;-74.634;0.8394;-0.9615
96.738.281;160.714;-0.5952;-73.413;0.7479;0.4426
96.757.813;131.105;0.2289;-70.971;0.6258;16.636
96.777.344;86.844;13.584;-66.087;0.4731;22.741
96.796.875;44.719;23.046;-59.066;0.0763;22.131
96.816.406;18.162;26.099;-53.571;-0.5647;11.447
96.835.938;0.7784;22.131;-51.740;-12.057;-0.2595
96.855.469;0.4426;16.636;-51.435;-16.331;-10.226
96.875.000;0.8089;10.836;-52.045;-19.689;-12.057
96.894.531;25.488;0.0153;-56.929;-24.573;-18.162
96.914.063;51.435;-15.110;-65.476;-32.814;-34.646
96.933.594;69.139;-25.794;-73.413;-41.667;-42.277
96.953.125;68.529;-25.488;-77.381;-48.382;-25.183
96.972.656;57.234;-18.773;-77.076;-52.045;-0.1374
96.992.188;47.466;-11.752;-75.855;-55.403;0.9921
97.011.719;45.330;-0.6258;-74.634;-59.982;0.8394
97.031.250;49.908;-0.1984;-71.581;-64.560;0.5647
97.050.781;57.540;0.1984;-65.171;-66.087;13.278
97.070.313;67.002;0.6868;-57.540;-63.950;19.689
97.089.844;79.518;0.7479;-52.961;-59.676;21.520
97.109.375;126.526;-0.3816;-53.877;-54.792;24.878
97.128.906;255.342;-30.067;-59.371;-50.214;22.436
97.148.438;412.241;-61.508;-67.918;-49.603;0.7479
97.167.969;476.648;-81.654;-76.770;-55.403;-22.131
97.187.500;427.503;-81.960;-81.654;-63.950;-56.013
97.207.031;324.939;-68.529;-81.044;-70.971;-71.276
97.226.563;213.217;-48.382;-77.076;-75.855;-63.950
97.246.094;107.906;-25.794;-70.665;-79.823;-40.140
97.265.625;20.910;-0.3816;-61.508;-80.739;-0.9921
97.285.156;-41.056;11.447;-52.961;-77.076;0.3510
97.304.688;-83.791;19.383;-47.161;-71.581;-14.194
97.324.219;-115.842;25.183;-43.193;-68.223;-42.277
97.343.750;-132.631;30.678;-39.225;-66.697;-48.687
97.363.281;-103.938;33.730;-37.393;-67.002;-35.867
97.382.813;-23.046;31.899;-38.309;-68.834;-23.046
97.402.344;56.929;26.099;-41.361;-70.971;-23.046
97.421.875;99.664;19.689;-45.940;-72.497;-36.172
97.441.406;108.211;15.720;-49.603;-73.718;-50.519
97.460.938;86.538;15.720;-51.435;-74.634;-54.792
97.480.469;44.414;17.247;-50.824;-73.413;-42.582
97.500.000;-0.7479;21.215;-49.908;-70.360;-11.752
97.519.531;-66.087;27.625;-50.519;-66.392;20.910
97.539.063;-125.916;33.730;-51.740;-59.676;38.614
97.558.594;-170.788;34.951;-53.266;-52.656;24.878
97.578.125;-186.661;30.372;-57.234;-50.824;-23.962
97.597.656;-174.145;20.604;-63.339;-54.792;-72.497
97.617.188;-146.673;10.226;-67.002;-59.371;-81.960
97.636.719;-114.927;0.0763;-65.171;-61.508;-57.845
97.656.250;-81.044;-11.447;-61.508;-64.560;-27.930
97.675.781;-53.571;-24.267;-59.066;-68.834;-0.6868
97.695.313;-45.024;-27.320;-56.013;-72.802;-0.1984
97.714.844;-51.129;-19.689;-50.824;-76.160;-20.299
97.734.375;-62.729;-0.8700;-43.803;-80.128;-45.330
97.753.906;-72.192;0.1068;-36.477;-85.012;-56.929
97.773.438;-72.497;0.7784;-32.814;-91.728;-57.234
97.792.969;-61.508;10.836;-34.341;-99.054;-47.772
97.812.500;-44.414;12.363;-37.393;-105.159;-33.120
97.832.031;-27.930;12.057;-40.140;-109.127;-20.299
97.851.563;-16.026;10.531;-43.803;-111.264;-0.4731
97.871.094;-12.363;0.9615;-50.214;-114.011;0.6258
97.890.625;-20.299;10.531;-56.929;-118.590;0.6868
97.910.156;-36.783;11.142;-60.287;-123.474;0.7784
97.929.688;-53.571;0.5037;-60.897;-125.916;16.331
97.949.219;-69.139;-0.9005;-60.897;-124.084;16.636
97.968.750;-82.875;-21.520;-59.066;-119.811;-0.2289
97.988.281;-89.286;-25.183;-52.656;-114.621;-21.825
98.007.813;-84.402;-22.131;-43.193;-107.601;-29.151
98.027.344;-74.634;-15.415;-35.256;-98.748;-30.678
98.046.875;-65.781;-0.9005;-30.678;-91.728;-22.131
98.066.406;-49.603;-0.7479;-29.151;-90.201;-15.110
98.085.938;-11.142;-0.9615;-29.762;-92.643;-38.614
98.105.469;34.341;-0.7173;-30.067;-95.085;-78.907
98.125.000;50.214;-0.0153;-29.457;-97.527;-92.643
98.144.531;27.015;0.4426;-29.762;-101.801;-75.549
98.164.063;-10.836;0.5952;-33.120;-111.264;-48.382
98.183.594;-38.614;0.5037;-42.888;-130.189;-30.983
98.203.125;-45.330;0.1984;-59.066;-155.525;-36.172
98.222.656;-42.277;-0.1374;-75.244;-175.977;-51.435
98.242.188;-44.109;-0.8089;-84.096;-185.440;-62.729
98.261.719;-55.403;-16.941;-85.623;-186.661;-76.465
98.281.250;-81.349;-19.689;-80.739;-183.913;-94.475
98.300.781;-116.758;-14.499;-72.192;-179.945;-101.801
98.320.313;-145.757;-0.2900;-61.508;-175.061;-92.643
98.339.844;-160.714;0.9005;-49.908;-168.956;-80.433
98.359.375;-167.430;19.383;-38.614;-161.935;-73.718
98.378.906;-169.261;26.099;-30.983;-155.830;-72.192
98.398.438;-159.799;19.383;-32.509;-153.388;-79.823
98.417.969;-138.431;0.3205;-42.888;-155.525;-89.591
98.437.500;-117.369;-0.3816;-52.350;-159.493;-91.117
98.457.031;-103.022;0.0153;-56.624;-165.293;-92.338
98.476.563;-92.033;0.9005;-55.403;-171.398;-101.496
98.496.094;-88.370;21.520;-49.603;-175.366;-110.348
98.515.625;-96.612;34.341;-43.498;-175.977;-110.043
98.535.156;-110.958;42.582;-39.530;-172.924;-107.295
98.554.688;-117.979;45.330;-38.919;-169.261;-113.400
98.574.219;-111.874;45.024;-40.446;-166.209;-110.348
98.593.750;-108.211;48.077;-38.004;-160.409;-81.349
98.613.281;-115.232;54.182;-30.983;-150.336;-55.708
98.632.813;-119.811;56.013;-27.320;-141.484;-62.424
98.652.344;-108.516;48.993;-32.204;-140.873;-105.464
98.671.875;-79.823;34.035;-44.719;-149.725;-170.177
98.691.406;-47.466;13.584;-58.761;-162.241;-223.901
98.710.938;-28.846;-0.3510;-68.834;-172.924;-244.658
98.730.469;-24.267;-12.973;-74.023;-180.556;-234.280
98.750.000;-27.015;-13.584;-72.802;-182.387;-207.723
98.769.531;-36.172;-0.6868;-65.781;-176.282;-176.587
98.789.063;-44.719;0.0153;-58.150;-168.040;-148.504
98.808.594;-37.088;0.1679;-56.319;-164.072;-138.736
98.828.125;-10.531;-0.9005;-59.371;-168.040;-155.220
98.847.656;0.7784;-23.962;-60.287;-173.230;-172.619
98.867.188;0.0458;-25.488;-49.603;-170.482;-159.188
98.886.719;-18.162;-15.415;-31.288;-160.409;-116.148
98.906.250;-38.919;-0.1374;-13.889;-147.894;-75.244
98.925.781;-62.424;0.7784;-0.3205;-137.210;-62.118
98.945.313;-74.939;0.6868;-0.1984;-133.242;-63.645
98.964.844;-59.371;-0.1984;-0.8700;-135.073;-69.139
98.984.375;-19.994;-15.110;-21.825;-139.957;-95.085
99.003.906;12.363;-24.267;-33.425;-138.736;-133.242
99.023.438;13.584;-19.994;-34.951;-127.747;-135.989
99.042.969;-12.363;-0.7479;-29.762;-114.621;-91.728
99.062.500;-45.024;0.1679;-27.625;-108.822;-45.024
99.082.031;-70.360;0.8089;-30.067;-110.348;-28.541
99.101.563;-93.254;15.720;-33.425;-114.011;-30.372
99.121.094;-118.284;23.657;-36.172;-117.979;-22.131
99.140.625;-129.274;28.541;-39.835;-125.000;0.1068
99.160.156;-124.389;28.541;-43.803;-132.631;26.099
99.179.688;-122.253;22.436;-48.993;-136.600;41.667
99.199.219;-120.116;0.7479;-57.845;-139.652;36.477
99.218.750;-95.696;-0.7479;-67.613;-142.705;18.773
99.238.281;-37.088;-16.636;-76.465;-145.452;-0.5952
99.257.813;22.741;-24.573;-85.928;-149.115;-54.792
99.277.344;47.466;-39.530;-96.612;-153.083;-97.833
99.296.875;48.687;-58.455;-105.769;-154.915;-98.443
99.316.406;47.161;-62.729;-107.295;-150.946;-73.413
99.335.938;39.835;-51.435;-97.833;-139.957;-47.466
99.355.469;28.541;-44.414;-84.096;-125.916;-33.730
99.375.000;21.825;-48.993;-73.107;-114.621;-33.120
99.394.531;28.846;-64.560;-68.529;-110.958;-37.698
99.414.063;61.508;-90.812;-71.886;-115.232;-42.888
99.433.594;103.022;-112.485;-73.107;-120.421;-37.698
99.453.125;118.895;-112.790;-64.255;-122.558;-14.194
99.472.656;121.642;-99.664;-54.487;-123.779;0.9310
99.492.188;128.358;-87.454;-51.435;-125.916;10.836
99.511.719;133.547;-76.160;-51.129;-127.747;-0.9921
99.531.250;135.073;-56.013;-48.077;-126.526;-33.730
99.550.781;110.958;-20.910;-40.446;-124.389;-46.551
99.570.313;41.361;24.573;-30.372;-123.779;-68.223
99.589.844;-31.593;65.781;-21.215;-124.695;-114.011
99.609.375;-57.540;83.486;-15.415;-123.168;-147.283
99.628.906;-65.476;82.570;-0.9921;-116.758;-127.747
99.648.438;-99.054;83.791;0.1068;-107.601;-81.349
99.667.969;-104.853;80.433;10.531;-99.359;-59.066
99.687.500;0.3816;46.856;0.2900;-96.001;-82.570
99.707.031;179.640;-10.836;-25.183;-99.664;-143.620
99.726.563;282.814;-56.319;-56.319;-106.685;-207.723
99.746.094;261.142;-66.392;-70.055;-108.516;-239.774
99.765.625;168.040;-57.234;-66.087;-105.464;-232.753
99.785.156;63.645;-38.004;-54.487;-103.022;-191.850
99.804.688;-38.614;0.2595;-38.919;-100.580;-125.611
99.824.219;-134.768;49.603;-23.962;-96.917;-56.929
99.843.750;-213.828;81.044;-13.278;-90.812;-0.1679
99.863.281;-275.794;93.559;-0.7173;-83.181;40.140
99.882.813;-309.066;82.265;-0.9615;-80.739;55.403
99.902.344;-306.624;57.540;-21.215;-86.233;41.361
99.921.875;-273.962;34.646;-36.172;-97.527;0.8700
99.941.406;-206.197;0.8089;-52.656;-111.569;-44.719
99.960.938;-95.696;-26.404;-67.308;-123.168;-112.179
99.980.469;67.613;-74.939;-79.823;-132.326;-171.703
100.000.000;288.004;-141.178;-94.170;-140.263;-204.976
100.019.531;496.490;-188.797;-99.054;-136.905;-193.987
100.039.063;610.348;-191.850;-87.759;-120.421;-155.525
100.058.594;621.642;-173.535;-71.581;-102.411;-136.905
100.078.125;553.266;-139.957;-55.403;-91.117;-144.231
100.097.656;451.313;-91.117;-39.530;-89.286;-149.420
100.117.188;372.253;-50.214;-32.509;-98.138;-140.873
100.136.719;295.330;-22.131;-31.593;-106.380;-104.853
100.156.250;168.346;10.531;-25.183;-103.327;-35.867
100.175.781;12.668;43.498;-15.110;-93.559;22.131
100.195.313;-111.264;57.845;-15.110;-91.422;31.288
100.214.844;-173.840;52.045;-28.541;-100.275;-0.5342
100.234.375;-182.082;34.035;-42.582;-107.601;-43.803
100.253.906;-133.852;15.720;-42.888;-100.275;-32.509
100.273.438;-40.140;0.1374;-30.983;-80.433;17.857
100.292.969;39.530;-0.4121;-14.194;-55.403;73.107
100.312.500;74.328;0.1679;0.4731;-29.457;110.958
100.332.031;81.960;11.752;18.162;-12.668;110.043
100.351.563;64.255;27.320;22.436;-12.973;59.371
100.371.094;23.962;44.414;20.299;-26.404;-33.730
100.390.625;-14.499;42.888;11.447;-43.498;-143.926
100.410.156;-38.614;23.046;-0.0763;-57.540;-236.416
100.429.688;-63.645;0.4121;-0.9005;-67.613;-280.372
100.449.219;-99.359;-10.836;-14.499;-78.297;-268.468
100.468.750;-138.431;-26.709;-26.709;-97.222;-233.669
100.488.281;-172.314;-27.015;-43.498;-123.168;-205.586
100.507.813;-183.608;-16.026;-55.098;-143.010;-189.713
100.527.344;-140.568;-25.488;-59.982;-149.115;-180.861
100.546.875;0.3510;-64.866;-67.002;-151.862;-192.460
100.566.406;237.332;-112.179;-86.233;-165.598;-240.995
100.585.938;465.354;-130.800;-112.790;-187.576;-297.466
100.605.469;613.400;-114.621;-133.852;-204.670;-323.718
100.625.000;657.662;-88.370;-137.515;-203.144;-300.519
100.644.531;609.432;-64.255;-116.148;-180.250;-220.849
100.664.063;530.983;-44.109;-78.297;-149.725;-117.674
100.683.594;472.070;-40.446;-44.109;-125.916;-37.698
100.703.125;429.029;-68.223;-33.425;-117.063;-13.889
100.722.656;394.536;-124.389;-55.098;-126.221;-53.266
100.742.188;335.928;-161.325;-84.402;-140.568;-104.548
100.761.719;204.670;-138.736;-88.980;-141.484;-109.127
100.781.250;19.994;-83.486;-68.834;-126.832;-83.486
100.800.781;-138.126;-38.309;-44.414;-107.295;-66.087
100.820.313;-190.934;-16.331;-31.899;-95.391;-72.497
100.839.844;-120.726;-18.162;-39.225;-98.443;-118.895
100.859.375;21.215;-32.814;-57.845;-112.179;-200.092
100.878.906;198.565;-49.603;-77.991;-126.832;-273.657
100.898.438;364.927;-72.802;-93.559;-133.852;-298.993
100.917.969;430.861;-88.065;-95.085;-131.716;-276.099
100.937.500;372.253;-64.255;-79.518;-125.000;-230.617
100.957.031;245.269;-0.9310;-54.792;-117.979;-175.061
100.976.563;106.990;33.425;-29.457;-107.601;-126.526
100.996.094;-0.6868;48.077;-0.9005;-92.338;-92.033
101.015.625;-90.201;51.129;0.2900;-81.044;-65.781
101.035.156;-145.147;54.792;0.1984;-84.707;-64.560
101.054.688;-145.147;59.676;-13.889;-103.938;-101.496
101.074.219;-90.507;62.424;-36.783;-128.358;-153.999
101.093.750;-47.466;65.171;-48.687;-142.094;-177.198
101.113.281;-59.676;64.255;-45.024;-143.010;-165.904
101.132.813;-99.359;46.551;-41.972;-142.399;-155.830
101.152.344;-118.895;0.5037;-49.298;-148.504;-168.040
101.171.875;-105.769;-47.161;-63.034;-159.493;-199.481
101.191.406;-72.802;-84.096;-67.918;-164.683;-224.206
101.210.938;-18.468;-102.411;-58.761;-156.136;-222.070
101.230.469;48.687;-123.168;-46.856;-139.957;-209.249
101.250.000;82.570;-149.725;-41.972;-127.137;-213.217
101.269.531;63.645;-184.219;-53.266;-129.274;-251.679
101.289.063;10.836;-217.491;-79.212;-145.147;-315.171
101.308.594;-85.623;-215.659;-99.054;-157.662;-374.084
101.328.125;-187.882;-193.071;-107.295;-164.988;-419.567
101.347.656;-194.902;-194.597;-119.505;-175.366;-468.101
101.367.188;-123.474;-213.828;-135.684;-183.303;-513.889
101.386.719;-115.842;-208.028;-132.326;-175.672;-500.153
101.406.250;-226.038;-163.767;-104.243;-157.051;-415.904
101.425.781;-382.326;-110.348;-73.718;-144.231;-317.002
101.445.313;-501.679;-71.276;-56.624;-142.094;-241.911
101.464.844;-518.773;-63.339;-60.897;-148.199;-216.270
101.484.375;-428.419;-95.696;-88.980;-164.988;-254.426
101.503.906;-300.214;-140.263;-119.811;-185.134;-311.508
101.523.438;-162.241;-175.977;-131.105;-196.734;-337.454
101.542.969;-41.972;-208.639;-128.358;-197.955;-348.138
101.562.500;-23.352;-232.448;-120.726;-190.629;-358.822
101.582.031;-114.316;-250.763;-114.621;-179.335;-371.947
101.601.563;-253.205;-267.247;-116.148;-172.619;-403.999
101.621.094;-411.630;-265.720;-116.758;-170.788;-438.797
101.640.625;-563.950;-243.742;-110.958;-169.567;-455.586
101.660.156;-681.166;-212.302;-103.022;-166.819;-470.238
101.679.688;-768.468;-168.956;-88.980;-160.104;-485.501
101.699.219;-838.370;-121.337;-68.223;-150.946;-480.006
101.718.750;-883.242;-80.433;-46.245;-146.062;-447.650
101.738.281;-893.926;-45.024;-27.015;-149.725;-423.230
101.757.813;-873.779;-25.183;-15.720;-157.967;-422.619
101.777.344;-811.813;-32.509;-22.131;-171.398;-418.651
101.796.875;-711.691;-58.150;-47.466;-193.071;-407.051
101.816.406;-620.421;-89.896;-76.770;-215.659;-402.473
101.835.938;-575.549;-131.716;-98.443;-228.175;-405.830
101.855.469;-579.823;-166.209;-105.464;-226.343;-404.609
101.875.000;-600.580;-173.840;-101.496;-217.186;-401.557
101.894.531;-586.538;-176.587;-107.906;-217.186;-435.440
101.914.063;-539.530;-186.661;-123.474;-227.259;-494.658
101.933.594;-502.289;-192.460;-126.221;-227.869;-518.162
101.953.125;-465.354;-208.639;-118.590;-212.607;-513.278
101.972.656;-400.336;-234.890;-109.737;-188.492;-504.426
101.992.188;-341.117;-234.585;-94.170;-163.767;-474.512
102.011.719;-323.413;-205.281;-75.855;-147.283;-430.556
102.031.250;-327.076;-177.198;-66.697;-142.399;-403.083
102.050.781;-326.160;-161.630;-67.613;-143.620;-394.231
102.070.313;-327.076;-150.641;-69.750;-144.841;-385.073
102.089.844;-349.664;-138.736;-69.444;-149.115;-384.463
102.109.375;-403.388;-122.863;-68.529;-157.051;-405.525
102.128.906;-470.238;-98.748;-59.982;-154.609;-402.167
102.148.438;-511.752;-77.381;-48.077;-141.484;-374.389
102.167.969;-502.900;-62.729;-51.435;-138.431;-400.031
102.187.500;-445.208;-45.940;-69.139;-151.252;-479.090
102.207.031;-374.084;-41.361;-83.486;-161.325;-537.698
102.226.563;-344.780;-48.993;-79.518;-155.830;-528.846
102.246.094;-365.842;-48.077;-59.676;-145.452;-475.122
102.265.625;-392.705;-47.161;-41.667;-141.789;-422.314
102.285.156;-408.272;-51.435;-29.457;-137.515;-363.706
102.304.688;-429.335;-49.298;-17.857;-123.168;-284.035
102.324.219;-453.144;-45.330;-12.363;-106.380;-211.996
102.343.750;-458.944;-44.719;-18.468;-101.496;-185.745
102.363.281;-430.861;-41.056;-30.983;-105.464;-185.440
102.382.813;-385.073;-31.288;-37.393;-105.769;-166.209
102.402.344;-343.254;-25.794;-37.393;-102.411;-136.600
102.421.875;-297.466;-41.361;-45.024;-107.295;-149.725
102.441.406;-247.405;-75.855;-65.781;-126.221;-232.753
102.460.938;-212.302;-95.085;-82.570;-148.810;-338.675
102.480.469;-205.281;-79.212;-78.297;-157.662;-394.231
102.500.000;-226.648;-50.824;-58.761;-141.484;-366.453
102.519.531;-264.499;-28.541;-36.172;-107.295;-276.709
102.539.063;-266.026;-18.468;-17.857;-74.023;-191.850
102.558.594;-179.945;-39.225;-15.415;-58.761;-168.040
102.578.125;-48.382;-92.338;-31.288;-61.203;-189.713
102.597.656;14.194;-134.158;-40.140;-62.424;-199.786
102.617.188;-41.361;-127.137;-22.131;-46.551;-177.198
102.636.719;-143.315;-98.138;0.2289;-26.099;-161.935
102.656.250;-211.996;-91.422;10.531;-20.910;-189.103
102.675.781;-255.037;-94.170;0.9310;-29.457;-230.617
102.695.313;-322.802;-61.203;15.415;-34.035;-237.332
102.714.844;-399.115;0.2595;28.236;-33.120;-206.197
102.734.375;-421.398;58.761;30.983;-41.667;-162.546
102.753.906;-386.294;72.497;0.9921;-54.487;-121.337
102.773.438;-310.897;46.245;-23.352;-60.287;-92.338
102.792.969;-198.565;14.194;-52.045;-68.223;-97.222
102.812.500;-100.580;-0.1679;-71.581;-85.012;-139.347
102.832.031;-80.739;0.6258;-76.770;-93.864;-167.735
102.851.563;-135.684;29.151;-66.392;-84.096;-139.347
102.871.094;-212.607;41.972;-52.961;-66.697;-90.812
102.890.625;-262.057;35.256;-48.077;-53.266;-80.128
102.910.156;-275.183;11.447;-47.466;-39.530;-92.033
102.929.688;-258.394;-32.814;-48.382;-27.930;-105.464
102.949.219;-212.607;-76.465;-56.929;-32.204;-149.115
102.968.750;-177.808;-79.212;-64.560;-45.940;-192.460
102.988.281;-191.545;-56.929;-55.708;-43.498;-164.072
103.007.813;-212.607;-46.551;-40.140;-25.183;-90.201
103.027.344;-194.292;-45.330;-37.698;-11.447;-54.182
103.046.875;-169.567;-37.393;-43.498;-0.5647;-74.939
103.066.406;-173.230;-26.709;-44.109;-0.1984;-134.158
103.085.938;-176.282;-38.004;-45.024;-0.2595;-221.764
103.105.469;-136.905;-74.939;-53.877;-10.836;-300.519
103.125.000;-67.918;-107.295;-68.223;-26.709;-342.949
103.144.531;-28.541;-115.232;-76.465;-43.498;-356.074
103.164.063;-45.940;-88.065;-64.560;-52.350;-337.149
103.183.594;-80.739;-32.814;-37.698;-54.182;-291.667
103.203.125;-86.233;14.805;-18.773;-59.982;-268.468
103.222.656;-78.297;34.646;-19.078;-71.581;-299.908
103.242.188;-89.896;41.056;-25.488;-74.634;-320.055
103.261.719;-107.906;44.109;-28.541;-67.613;-276.099
103.281.250;-117.369;47.466;-34.035;-63.950;-214.133
103.300.781;-138.126;68.834;-38.614;-63.645;-161.630
103.320.313;-189.103;104.243;-33.425;-56.319;-113.095
103.339.844;-259.005;125.000;-19.689;-39.530;-80.739
103.359.375;-316.087;117.979;-0.4121;-18.773;-60.897
103.378.906;-312.729;92.338;0.0153;-0.9310;-63.339
103.398.438;-206.197;57.540;-16.941;-26.404;-114.316
103.417.969;-45.635;21.520;-38.004;-55.708;-182.387
103.437.500;50.824;-0.9005;-45.024;-68.834;-203.144
103.457.031;41.667;-23.962;-39.835;-61.203;-161.935
103.476.563;-30.372;-20.910;-31.288;-48.077;-104.853
103.496.094;-118.284;-30.678;-32.814;-43.803;-87.759
103.515.625;-181.166;-76.770;-55.098;-56.319;-131.410
103.535.156;-203.755;-116.758;-86.233;-80.433;-197.344
103.554.688;-216.575;-92.643;-98.443;-97.222;-204.976
103.574.219;-243.742;-30.067;-87.759;-97.222;-143.010
103.593.750;-260.836;0.4426;-75.549;-88.370;-76.160
103.613.281;-248.016;0.6563;-65.171;-75.549;-21.825
103.632.813;-210.165;0.9921;-48.077;-58.150;37.088
103.652.344;-150.336;17.247;-27.930;-39.530;82.875
103.671.875;-85.012;20.299;-16.636;-28.236;80.739
103.691.406;-48.382;26.404;-17.857;-30.372;28.846
103.710.938;-55.403;39.530;-24.878;-42.277;-37.698
103.730.469;-85.623;57.234;-29.151;-53.571;-77.686
103.750.000;-122.253;72.192;-23.962;-55.098;-66.697
103.769.531;-172.619;71.276;-0.9615;-45.024;-17.552
103.789.063;-226.343;51.435;0.2595;-31.899;38.004
103.808.594;-251.984;19.383;0.3205;-30.678;68.223
103.828.125;-223.596;-0.9615;-0.7479;-45.940;45.330
103.847.656;-154.915;-19.689;-23.657;-61.813;-13.584
103.867.188;-85.012;-13.584;-38.004;-62.118;-74.023
103.886.719;-32.204;-0.5952;-42.888;-48.687;-103.632
103.906.250;-0.5037;0.2289;-32.204;-26.709;-67.002
103.925.781;-14.194;17.247;-0.9921;-0.1679;12.973
103.945.313;-52.045;38.919;12.057;15.720;70.055
103.964.844;-103.022;64.866;30.372;20.910;88.980
103.984.375;-150.031;97.527;46.856;17.552;102.106
104.003.906;-182.692;130.495;57.845;12.057;116.758
104.023.438;-194.292;146.673;55.708;0.6258;103.632
104.042.969;-174.451;133.547;38.004;-0.1068;47.466
104.062.500;-119.811;102.717;12.057;-10.836;-29.457
104.082.031;-41.056;80.739;-11.447;-24.267;-93.864
104.101.563;38.309;70.055;-29.151;-38.004;-121.032
104.121.094;88.065;43.498;-36.172;-42.888;-100.885
104.140.625;100.580;-17.247;-37.393;-35.867;-60.287
104.160.156;87.454;-90.812;-38.004;-19.078;-20.604
104.179.688;49.603;-131.410;-29.762;0.1679;23.352
104.199.219;-0.7479;-127.747;-12.668;18.162;52.961
104.218.750;-63.645;-99.664;0.5037;27.930;48.993
104.238.281;-108.822;-58.761;23.046;36.477;34.646
104.257.813;-139.957;-15.720;40.140;43.193;25.488
104.277.344;-148.810;0.9005;54.792;46.245;17.857
104.296.875;-139.957;0.4121;66.697;47.772;0.4426
104.316.406;-121.032;-14.805;75.244;48.687;-16.941
104.335.938;-110.043;-19.078;84.707;51.435;-23.962
104.355.469;-123.168;0.4426;101.801;58.150;-0.3816
104.375.000;-138.431;40.140;123.168;60.592;12.973
104.394.531;-136.905;68.529;136.600;49.298;-0.7479
104.414.063;-116.148;73.413;128.968;23.962;-72.497
104.433.594;-68.223;48.077;94.475;-12.363;-150.946
104.453.125;0.1984;23.657;43.803;-57.234;-205.891
104.472.656;73.413;31.288;-0.4121;-102.411;-236.111
104.492.188;104.853;66.392;-25.794;-128.358;-223.596
104.511.719;84.096;102.717;-11.142;-121.337;-151.557
104.531.250;63.950;115.537;17.857;-90.812;-59.066
104.550.781;71.581;98.443;40.751;-52.656;17.552
104.570.313;70.665;66.697;55.403;-16.636;75.244
104.589.844;27.320;35.256;65.171;11.142;114.927
104.609.375;-48.382;16.331;76.160;33.425;139.957
104.628.906;-126.221;16.636;92.033;57.234;157.051
104.648.438;-179.945;17.247;106.074;80.739;174.451
104.667.969;-195.513;0.1068;109.127;94.780;195.513
104.687.500;-184.524;-16.941;102.411;92.033;209.860
104.707.031;-142.705;-30.372;84.707;70.971;193.681
104.726.563;-60.897;-37.088;58.761;37.698;143.315
104.746.094;28.846;-25.794;39.530;0.6868;86.844
104.765.625;122.253;-0.7784;34.341;-12.057;38.919
104.785.156;214.133;0.9005;38.004;-19.994;-0.5037
104.804.688;256.258;27.625;43.193;-27.015;-46.856
104.824.219;247.711;39.225;42.277;-44.109;-88.370
104.843.750;215.659;51.435;34.341;-69.444;-136.294
104.863.281;159.799;72.802;26.099;-91.728;-179.335
104.882.813;82.875;90.812;23.962;-98.138;-199.481
104.902.344;-0.2900;94.170;26.404;-89.286;-197.344
104.921.875;-68.529;86.233;25.488;-79.212;-178.114
104.941.406;-94.170;82.265;19.994;-77.991;-151.862
104.960.938;-111.264;91.728;23.046;-75.244;-114.927
104.980.469;-142.705;98.443;36.477;-59.676;-52.350
105.000.000;-161.020;86.233;48.687;-36.477;13.584
105.019.531;-143.010;67.002;58.455;-18.468;56.013
105.039.063;-110.043;45.024;68.529;-0.9921;87.759
105.058.594;-90.507;16.636;77.991;-0.5342;118.284
105.078.125;-81.654;0.0153;87.454;0.1068;140.263
105.097.656;-65.476;0.1679;95.085;0.9310;157.051
105.117.188;-26.099;0.1679;94.475;14.194;164.988
105.136.719;47.772;-14.499;84.096;14.194;162.546
105.156.250;150.336;-48.077;61.813;0.7784;144.231
105.175.781;232.448;-73.413;35.867;-0.2900;102.411
105.195.313;234.585;-63.339;26.099;-0.6868;71.276
105.214.844;176.282;-47.161;30.372;0.0763;75.855
105.234.375;114.011;-45.330;34.951;14.194;96.001
105.253.906;80.128;-32.204;37.088;23.352;95.391
105.273.438;68.834;-0.1374;39.225;24.267;72.802
105.292.969;32.204;37.088;52.656;25.488;71.886
105.312.500;-34.951;74.939;77.381;31.593;99.664
105.332.031;-100.275;98.748;99.054;34.035;132.021
105.351.563;-148.504;109.737;109.432;20.299;148.810
105.371.094;-158.272;121.947;107.906;-11.142;151.862
105.390.625;-124.695;117.369;97.222;-39.225;179.945
105.410.156;-71.276;72.192;85.012;-42.888;244.353
105.429.688;-23.657;13.278;81.654;-25.794;314.560
105.449.219;14.805;-16.941;91.422;-0.2595;374.389
105.468.750;50.214;-16.331;107.295;18.773;410.714
105.488.281;72.192;-17.552;112.485;30.372;390.873
105.507.813;96.917;-56.013;91.422;23.657;302.350
105.527.344;153.999;-114.621;52.350;0.3510;180.556
105.546.875;204.060;-132.326;25.183;-12.363;92.949
105.566.406;208.028;-94.170;22.131;-17.247;75.549
105.585.938;182.998;-41.972;27.320;-18.773;90.812
105.605.469;125.000;0.1984;32.204;-22.741;97.527
105.625.000;37.088;38.004;40.446;-31.593;98.138
105.644.531;-37.393;63.339;48.382;-44.719;91.728
105.664.063;-77.076;73.107;52.961;-51.435;85.928
105.683.594;-91.728;70.360;53.571;-43.193;115.842
105.703.125;-97.527;69.750;49.298;-29.151;183.608
105.722.656;-103.938;83.181;44.109;-19.383;259.005
105.742.188;-117.369;104.853;45.940;-0.9615;323.413
105.761.719;-112.790;111.569;52.961;0.3816;361.569
105.781.250;-45.635;85.012;55.403;17.857;362.485
105.800.781;68.223;32.814;48.382;26.709;332.570
105.820.313;169.567;-33.120;26.099;22.436;260.226
105.839.844;235.806;-114.316;-10.836;0.3510;159.188
105.859.375;258.089;-184.829;-41.056;-17.552;100.580
105.878.906;218.101;-193.376;-39.530;-30.067;120.421
105.898.438;129.579;-131.716;-0.9310;-33.120;175.061
105.917.969;32.204;-45.024;25.183;-32.204;195.818
105.937.500;-44.109;25.488;47.466;-30.983;156.746
105.957.031;-77.076;59.676;51.740;-30.372;79.823
105.976.563;-51.435;56.013;38.614;-35.256;-0.1984
105.996.094;0.1984;27.015;14.499;-48.077;-62.118
106.015.625;32.204;-10.226;-0.9310;-62.424;-79.212
106.035.156;24.573;-33.120;-23.962;-71.886;-42.582
106.054.688;14.194;-26.709;-26.709;-76.160;21.215
106.074.219;20.604;-0.5037;-21.825;-77.686;70.971
106.093.750;16.331;11.142;-10.226;-74.939;96.001
106.113.281;-12.668;21.215;0.7173;-67.918;103.327
106.132.813;-33.120;19.689;17.857;-62.424;91.728
106.152.344;-15.720;-0.2289;0.9005;-60.592;58.455
106.171.875;20.604;-32.814;-12.057;-61.813;18.773
106.191.406;51.740;-55.403;-33.120;-66.392;-22.741
106.210.938;67.002;-56.319;-48.077;-71.581;-58.761
106.230.469;59.982;-27.015;-47.772;-69.139;-45.024
106.250.000;25.183;15.415;-27.320;-50.519;46.551
106.269.531;-24.878;45.635;0.9005;-25.794;184.219
106.289.063;-51.740;52.656;42.888;-12.363;296.245
106.308.594;-40.446;33.730;59.676;-10.836;339.591
106.328.125;-26.404;0.1374;64.560;-0.9615;338.980
106.347.656;-28.541;-31.899;63.950;-0.4121;316.087
106.367.188;-35.867;-53.571;59.676;0.2900;245.269
106.386.719;-44.719;-45.940;57.845;0.9921;139.652
106.406.250;-51.740;-16.331;60.287;16.941;75.855
106.425.781;-42.582;10.531;59.676;22.131;80.128
106.445.313;-0.5952;20.604;48.993;21.825;105.159
106.464.844;59.066;0.9615;29.457;17.552;108.822
106.484.375;131.716;-12.668;0.6868;13.278;77.381
106.503.906;175.366;-34.951;-14.499;0.9005;27.015
106.523.438;169.261;-59.371;-31.899;0.5342;-11.447
106.542.969;130.800;-92.643;-42.888;0.3205;-23.352
106.562.500;89.591;-123.779;-49.908;-0.1068;-0.9005
106.582.031;45.635;-126.221;-46.551;-0.6563;35.867
106.601.563;-0.6258;-93.864;-30.372;-11.752;95.085
106.621.094;-43.803;-45.024;-17.552;-21.825;129.884
106.640.625;-51.740;0.9005;-10.836;-34.341;146.368
106.660.156;-43.498;57.540;-0.5342;-41.667;165.904
106.679.688;-37.393;78.297;-0.0458;-41.056;178.724
106.699.219;-32.509;70.055;0.4121;-36.783;174.756
106.718.750;-20.299;59.676;11.142;-34.646;165.598
106.738.281;-0.8394;65.171;19.078;-38.004;156.441
106.757.813;0.7784;64.866;19.078;-50.824;126.221
106.777.344;23.046;49.298;0.9615;-67.613;85.317
106.796.875;0.2289;37.088;0.4731;-72.192;72.497
106.816.406;-49.603;33.120;0.6868;-63.339;75.549
106.835.938;-88.980;32.509;0.5952;-56.319;45.940
106.855.469;-92.949;22.436;0.1068;-59.676;-12.668
106.875.000;-51.435;-0.4731;-0.1984;-68.834;-54.182
106.894.531;18.773;-23.352;-0.0763;-77.686;-58.761
106.914.063;60.592;-0.9921;0.8089;-80.128;-34.035
106.933.594;52.656;25.488;23.352;-77.076;-0.3510
106.953.125;16.331;61.203;35.562;-71.581;18.162
106.972.656;-28.541;68.223;37.698;-63.339;53.877
106.992.188;-62.729;53.877;34.951;-50.824;119.505
107.011.719;-84.402;52.045;41.361;-33.425;211.081
107.031.250;-87.759;43.193;48.077;-16.941;297.466
107.050.781;-65.781;-0.0763;39.835;-0.9615;327.381
107.070.313;-38.004;-51.435;27.320;-11.447;305.708
107.089.844;-15.415;-71.581;23.657;-20.604;268.468
107.109.375;0.1068;-59.371;26.709;-38.004;214.438
107.128.906;0.0458;-20.299;40.446;-51.740;160.104
107.148.438;-23.046;27.930;67.308;-46.551;140.263
107.167.969;-35.867;48.687;84.402;-31.288;122.558
107.187.500;0.4121;30.372;74.939;-23.962;61.203
107.207.031;63.950;15.720;58.761;-17.857;0.0153
107.226.563;77.686;38.919;59.371;-0.1068;-0.9921
107.246.094;49.603;76.465;67.308;16.026;0.6563
107.265.625;17.857;103.632;68.223;24.573;12.668
107.285.156;-0.6258;114.621;59.676;25.183;-10.531
107.304.688;-25.183;104.548;44.719;21.520;-50.214
107.324.219;-35.867;67.308;25.488;16.331;-85.317
107.343.750;-27.320;10.531;0.1679;0.5952;-126.832
107.363.281;-0.8394;-36.172;-22.131;-0.9005;-174.451
107.382.813;-0.1679;-56.319;-36.172;-25.183;-194.597
107.402.344;-12.668;-49.298;-31.593;-38.004;-172.924
107.421.875;-18.468;-32.509;-16.941;-48.993;-147.894
107.441.406;-0.3205;-30.678;-13.278;-64.255;-150.641
107.460.938;16.331;-43.498;-18.468;-77.991;-160.714
107.480.469;26.099;-50.214;-16.941;-80.433;-142.094
107.500.000;32.814;-42.888;-0.7784;-74.939;-101.190
107.519.531;48.382;-29.457;-0.2595;-74.634;-80.433
107.539.063;70.360;-0.5647;-0.1374;-85.317;-96.001
107.558.594;84.402;26.404;0.3510;-100.885;-121.337
107.578.125;92.949;34.341;0.5952;-114.011;-142.094
107.597.656;99.969;0.7479;0.0763;-119.200;-160.409
107.617.188;96.612;-14.805;0.0763;-116.148;-171.093
107.636.719;79.823;-0.9310;10.226;-108.211;-172.009
107.656.250;55.403;0.9921;17.552;-97.527;-168.346
107.675.781;44.414;15.415;0.7784;-92.949;-179.640
107.695.313;50.519;0.2289;-19.078;-100.275;-210.775
107.714.844;47.161;-0.4731;-38.004;-107.906;-208.944
107.734.375;24.573;-0.0763;-37.393;-100.885;-141.789
107.753.906;0.1068;-0.5647;-33.730;-82.570;-52.045
107.773.438;-12.668;-16.026;-32.509;-62.424;23.046
107.792.969;-33.120;-14.194;-23.657;-44.109;78.907
107.812.500;-64.560;-10.226;-0.9615;-30.067;101.496
107.832.031;-92.338;-10.226;0.6563;-18.468;97.833
107.851.563;-111.874;-0.5647;27.930;-0.4426;92.949
107.871.094;-122.253;-0.7173;49.908;0.9005;88.675
107.890.625;-121.032;-17.552;67.613;19.994;82.570
107.910.156;-101.801;-23.657;77.381;24.573;66.087
107.929.688;-49.908;-30.678;72.802;13.584;0.7479
107.949.219;19.383;-38.919;56.319;-0.6563;-76.160
107.968.750;49.908;-26.404;47.772;-17.857;-105.464
107.988.281;37.393;0.6258;48.077;-25.488;-87.759
108.007.813;39.835;31.288;35.256;-50.214;-105.769
108.027.344;55.098;32.509;13.584;-76.465;-138.431
108.046.875;60.592;10.226;0.1984;-79.518;-132.326
108.066.406;71.886;-28.541;-0.8394;-67.918;-127.747
108.085.938;87.759;-66.697;-23.962;-56.624;-158.272
108.105.469;97.222;-78.297;-32.814;-48.687;-195.208
108.125.000;96.917;-59.676;-30.067;-48.382;-211.996
108.144.531;75.244;-31.593;-22.131;-52.045;-193.987
108.164.063;45.940;-26.404;-18.773;-52.350;-143.926
108.183.594;31.288;-49.908;-21.520;-49.603;-86.844
108.203.125;18.162;-56.929;-17.247;-47.466;-37.088
108.222.656;-0.2900;-38.614;-0.4731;-48.077;-0.2900
108.242.188;-14.499;-34.341;0.4426;-49.908;13.278
108.261.719;-29.151;-41.056;13.278;-46.856;22.436
108.281.250;-63.339;-33.425;27.015;-35.256;23.657
108.300.781;-92.643;-15.720;40.140;-20.299;29.762
108.320.313;-101.190;0.1068;51.129;-0.3510;67.918
108.339.844;-85.012;0.5647;55.708;11.447;117.979
108.359.375;-30.372;-0.9615;41.972;12.973;123.168
108.378.906;34.035;-25.488;18.773;0.3205;75.244
108.398.438;52.961;-21.215;13.278;0.1374;29.457
108.417.969;32.509;-0.6258;29.457;0.9310;18.468
108.437.500;26.099;-0.1679;43.498;12.363;0.2900
108.457.031;45.024;-15.415;41.972;0.5342;-38.614
108.476.563;77.686;-39.225;26.709;-0.7173;-76.160
108.496.094;106.990;-56.013;12.668;-17.552;-74.939
108.515.625;92.033;-52.350;17.857;-13.889;-18.773
108.535.156;34.341;-53.877;33.730;-0.1374;55.403
108.554.688;-19.078;-71.886;48.382;10.531;105.159
108.574.219;-49.908;-72.497;68.223;22.436;131.716
108.593.750;-61.508;-53.266;90.812;33.120;150.336
108.613.281;-58.150;-38.919;102.717;38.309;162.546
108.632.813;-45.024;-25.794;103.022;29.151;159.799
108.652.344;-31.899;-0.6563;101.190;0.6258;141.789
108.671.875;-34.951;0.4731;97.222;-15.110;128.968
108.691.406;-53.877;0.5647;86.538;-27.320;125.305
108.710.938;-65.781;0.4731;68.223;-35.867;111.569
108.730.469;-54.792;-0.7479;41.056;-44.414;79.823
108.750.000;-32.509;-27.625;16.331;-52.045;37.088
108.769.531;-22.741;-27.320;0.5952;-61.203;-12.363
108.789.063;-30.067;-15.415;0.5342;-70.665;-63.339
108.808.594;-42.888;-12.668;0.9921;-68.529;-74.634
108.828.125;-44.719;-23.046;16.941;-52.656;-37.698
108.847.656;-16.636;-54.487;10.226;-40.751;-17.857
108.867.188;17.552;-81.654;0.0153;-36.783;-13.889
108.886.719;23.962;-73.718;0.6563;-31.593;24.573
108.906.250;15.415;-44.414;22.741;-27.320;73.718
108.925.781;0.6563;-18.773;35.867;-20.910;103.022
108.945.313;-0.1984;-13.278;41.972;-0.6563;116.758
108.964.844;-12.363;-20.604;44.719;0.8394;121.642
108.984.375;-36.477;-26.404;50.214;20.604;126.221
109.003.906;-63.645;-45.940;48.687;23.352;111.569
109.023.438;-75.855;-77.686;39.225;16.636;66.697
109.042.969;-85.012;-84.707;42.277;12.668;33.120
109.062.500;-103.327;-64.255;60.592;15.415;42.582
109.082.031;-121.337;-46.856;76.160;13.889;66.392
109.101.563;-123.168;-41.972;79.212;0.2289;70.360
109.121.094;-113.400;-38.614;75.244;-12.057;58.150
109.140.625;-96.917;-35.867;73.107;-23.046;41.667
109.160.156;-56.319;-45.024;66.087;-35.256;26.709
109.179.688;-0.5952;-62.118;50.519;-51.129;27.625
109.199.219;14.194;-66.697;42.582;-62.118;60.592
109.218.750;0.2900;-54.182;50.824;-62.424;117.063
109.238.281;-12.363;-45.330;61.813;-56.319;167.125
109.257.813;-23.046;-48.382;63.950;-48.077;191.850
109.277.344;-45.940;-46.856;61.203;-38.919;205.586
109.296.875;-80.433;-39.530;52.961;-31.593;215.659
109.316.406;-116.148;-39.835;40.446;-21.825;210.165
109.335.938;-149.725;-64.866;32.204;-0.5647;195.513
109.355.469;-178.114;-100.275;30.678;10.531;188.187
109.375.000;-213.828;-103.327;39.225;21.825;191.850
109.394.531;-251.374;-75.549;54.487;23.046;187.882
109.414.063;-269.689;-41.056;70.665;13.278;169.567
109.433.594;-262.057;-13.278;79.518;0.1679;141.789
109.453.125;-225.733;-0.3205;72.497;-0.5342;96.306
109.472.656;-177.808;-0.7479;58.455;-0.8089;52.656
109.492.188;-134.463;-27.625;43.498;-0.9005;34.035
109.511.719;-92.338;-64.560;23.962;-16.636;19.994
109.531.250;-74.328;-106.685;0.8089;-26.709;0.3205
109.550.781;-102.411;-139.652;0.5647;-29.151;0.8700
109.570.313;-151.252;-153.083;0.9615;-23.657;50.519
109.589.844;-179.640;-150.946;12.057;-17.247;99.969
109.609.375;-180.250;-139.957;10.531;-14.499;116.758
109.628.906;-182.692;-121.337;0.9615;-13.278;93.864
109.648.438;-209.249;-99.969;16.026;-0.7173;53.266
109.667.969;-248.626;-83.791;30.678;0.9310;32.509
109.687.500;-271.825;-81.044;46.245;34.646;48.382
109.707.031;-285.867;-91.728;53.266;59.066;81.044
109.726.563;-304.182;-109.432;41.972;67.918;106.380
109.746.094;-308.150;-117.063;0.9921;55.708;109.737
109.765.625;-306.929;-98.443;-24.878;34.035;103.022
109.785.156;-305.708;-65.476;-45.024;19.994;92.338
109.804.688;-294.109;-45.940;-51.435;18.162;62.424
109.824.219;-298.687;-50.214;-53.877;24.267;36.477
109.843.750;-322.802;-67.918;-59.676;32.204;39.225
109.863.281;-318.834;-94.475;-74.634;30.678;35.256
109.882.813;-261.752;-130.800;-97.527;16.636;0.7479
109.902.344;-174.145;-174.145;-114.011;0.2595;-0.7479
109.921.875;-65.476;-244.963;-130.189;-0.9005;-20.604
109.941.406;47.466;-330.739;-153.999;-23.352;-57.234
109.960.938;75.244;-356.990;-152.167;-23.657;-53.571
109.980.469;-26.099;-313.034;-108.211;-0.1984;23.352
110.000.000;-181.166;-253.816;-52.350;26.709;109.737
110.019.531;-280.372;-202.839;-0.8089;53.571;166.819
110.039.063;-282.509;-167.735;19.994;72.802;202.228
110.058.594;-246.490;-140.263;36.783;75.549;209.249
110.078.125;-246.795;-103.938;52.045;65.476;195.513
110.097.656;-290.751;-63.645;73.413;57.234;193.681
110.117.188;-341.728;-28.236;98.443;62.424;228.175
110.136.719;-369.506;-0.6563;114.621;79.212;284.341
110.156.250;-362.179;-0.1984;114.316;90.507;320.360
110.175.781;-326.465;-0.5647;98.443;86.233;324.023
110.195.313;-274.267;-12.057;67.308;67.918;317.613
110.214.844;-215.354;-21.215;27.015;43.803;314.866
110.234.375;-174.145;-35.256;-0.6868;29.151;317.308
110.253.906;-171.703;-52.656;-24.267;30.067;326.160
110.273.438;-197.039;-60.592;-27.625;35.867;339.896
110.292.969;-215.965;-58.150;-25.183;37.698;349.054
110.312.500;-209.249;-51.435;-17.552;40.140;360.958
110.332.031;-189.408;-44.109;0.0153;46.856;380.189
110.351.563;-172.924;-40.140;20.299;51.129;382.021
110.371.094;-177.198;-30.067;37.393;54.182;371.642
110.390.625;-206.502;-10.836;56.013;67.918;367.979
110.410.156;-239.164;-0.4426;75.549;90.812;353.938
110.429.688;-241.606;-17.857;90.812;111.264;327.381
110.449.219;-183.913;-34.035;98.443;122.558;305.403
110.468.750;-84.707;-49.908;100.275;126.526;287.698
110.488.281;-0.0763;-64.255;100.580;125.611;272.131
110.507.813;39.530;-64.866;97.527;117.369;248.321
110.527.344;42.277;-51.740;88.675;102.717;196.123
110.546.875;0.3816;-19.383;86.538;94.475;147.283
110.566.406;-79.518;38.004;101.190;99.054;151.252
110.585.938;-174.451;94.170;116.758;103.632;197.039
110.605.469;-240.079;125.305;117.369;100.580;243.742
110.625.000;-265.110;136.294;105.464;92.643;279.151
110.644.531;-233.059;131.105;82.875;79.823;291.667
110.664.063;-149.115;112.485;51.740;63.034;267.857
110.683.594;-95.391;102.106;30.983;54.487;243.742
110.703.125;-108.516;102.411;30.067;56.929;254.121
110.722.656;-132.021;102.717;36.477;60.592;277.930
110.742.188;-135.379;111.874;43.498;61.203;285.867
110.761.719;-128.968;120.421;52.045;63.339;277.015
110.781.250;-112.485;110.653;60.897;67.613;281.593
110.800.781;-77.076;89.591;69.444;69.444;317.308
110.820.313;-40.751;77.076;82.265;68.223;371.032
110.839.844;-24.878;70.360;98.138;67.918;421.398
110.859.375;-21.825;59.066;109.432;67.613;447.650
110.878.906;-19.689;61.203;117.674;66.087;439.713
110.898.438;-13.584;87.759;123.779;57.845;386.905
110.917.969;0.0153;120.726;123.474;44.414;307.234
110.937.500;25.488;142.705;117.369;33.425;243.742
110.957.031;55.708;151.862;109.737;26.404;200.092
110.976.563;87.149;150.946;101.496;19.689;157.967
110.996.094;122.253;143.926;92.949;12.057;128.968
111.015.625;151.252;134.768;85.012;0.5342;125.305
111.035.156;167.125;121.337;76.465;-0.1068;135.684
111.054.688;170.177;110.653;69.444;-0.8700;145.452
111.074.219;162.546;111.874;64.866;-17.247;146.978
111.093.750;163.156;112.790;53.266;-28.846;140.873
111.113.281;176.282;102.106;33.120;-37.088;140.873
111.132.813;182.387;92.338;23.962;-27.015;168.346
111.152.344;172.009;94.475;35.256;0.1984;219.322
111.171.875;162.851;96.306;50.214;33.120;262.363
111.191.406;172.314;89.896;54.792;50.824;277.015
111.210.938;182.082;90.201;56.929;57.234;278.236
111.230.469;173.230;104.853;64.255;63.034;281.593
111.250.000;161.630;119.505;70.665;71.581;272.741
111.269.531;151.557;130.800;73.413;78.907;242.216
111.289.063;126.526;143.926;79.518;85.012;207.723
111.308.594;87.149;155.830;93.559;95.391;189.103
111.328.125;58.761;163.462;109.432;111.264;181.471
111.347.656;63.645;168.651;116.758;123.779;174.451
111.367.188;92.643;172.009;112.485;128.358;171.703
111.386.719;115.842;170.177;106.685;130.189;184.219
111.406.250;123.474;161.325;106.074;133.242;201.923
111.425.781;120.421;150.336;106.990;135.684;207.112
111.445.313;110.348;140.873;107.295;137.210;200.397
111.464.844;106.685;130.800;107.601;135.989;177.808
111.484.375;123.474;118.284;104.853;129.884;143.010
111.503.906;161.630;108.516;94.780;118.284;110.653
111.523.438;208.333;116.148;75.855;99.054;72.192
111.542.969;242.521;132.326;56.013;81.960;47.772
111.562.500;239.164;131.716;51.740;83.181;88.370
111.582.031;208.028;117.979;62.729;98.748;177.503
111.601.563;182.998;105.159;73.718;111.569;260.531
111.621.094;172.314;89.286;75.855;116.453;320.360
111.640.625;167.430;71.276;73.413;115.232;367.674
111.660.156;154.609;66.392;76.160;113.400;410.714
111.679.688;127.747;81.654;88.675;114.011;440.934
111.699.219;96.917;106.074;105.464;115.537;459.249
111.718.750;71.276;129.579;122.558;118.284;480.922
111.738.281;52.350;147.894;139.957;120.421;500.153
111.757.813;41.972;158.578;152.778;117.674;504.121
111.777.344;45.024;160.714;155.830;107.906;490.079
111.796.875;59.066;157.662;150.641;93.254;452.839
111.816.406;76.160;151.557;139.652;79.212;398.199
111.835.938;96.001;140.873;123.779;66.087;346.001
111.855.469;123.168;128.968;102.106;52.045;315.171
111.875.000;138.736;123.779;82.265;39.835;313.339
111.894.531;125.916;124.695;77.076;33.120;319.444
111.914.063;104.548;125.305;82.570;30.678;315.781
111.933.594;97.527;125.305;85.623;31.593;317.308
111.953.125;109.737;125.000;78.907;34.646;329.823
111.972.656;147.283;122.863;63.339;35.562;336.538
111.992.188;200.702;116.758;44.414;35.867;323.718
112.011.719;235.806;108.211;34.951;41.972;296.245
112.031.250;237.332;97.833;38.309;54.487;282.814
112.050.781;218.712;87.149;48.382;73.718;302.961
112.070.313;190.629;78.602;59.676;97.527;345.391
112.089.844;155.525;69.139;68.834;118.895;389.652
112.109.375;117.979;59.982;72.802;131.716;414.377
112.128.906;91.117;53.571;72.192;134.463;417.125
112.148.438;67.308;51.129;72.497;132.631;416.514
112.167.969;37.088;52.045;76.465;130.800;415.293
112.187.500;18.773;53.571;79.518;125.611;405.220
112.207.031;28.236;55.708;81.044;117.674;385.073
112.226.563;60.287;56.929;83.181;112.790;362.179
112.246.094;82.570;59.371;88.065;114.927;370.116
112.265.625;66.087;69.139;97.222;124.084;413.767
112.285.156;23.352;85.623;110.958;133.852;457.723
112.304.688;-0.8089;103.938;127.137;135.989;480.311
112.324.219;0.0763;116.453;135.989;123.168;469.628
112.343.750;40.140;114.316;129.884;97.222;431.471
112.363.281;68.834;99.054;115.842;70.360;395.452
112.382.813;72.497;77.076;103.022;52.961;372.863
112.402.344;74.634;51.740;86.538;40.751;350.275
112.421.875;86.538;31.288;67.002;31.593;322.802
112.441.406;87.454;24.573;56.929;32.509;302.656
112.460.938;71.886;29.457;57.845;41.361;295.330
112.480.469;59.676;36.783;62.424;52.045;306.013
112.500.000;55.098;38.919;70.055;63.339;340.507
112.519.531;49.908;41.361;83.486;76.770;392.094
112.539.063;47.772;46.551;99.969;88.370;441.239
112.558.594;66.392;44.414;113.400;92.338;461.386
112.578.125;102.411;35.256;119.811;86.844;432.692
112.597.656;131.105;34.951;118.895;71.886;360.958
112.617.188;150.031;49.908;109.737;49.298;280.067
112.636.719;153.694;71.276;99.359;29.457;232.143
112.656.250;122.253;90.812;98.138;24.878;226.954
112.675.781;62.118;110.653;107.906;32.814;243.437
112.695.313;0.5647;132.631;122.253;42.582;262.057
112.714.844;-26.099;150.946;132.021;49.908;272.741
112.734.375;-36.477;156.136;135.684;61.508;288.919
112.753.906;-27.015;143.010;137.821;82.265;317.308
112.773.438;-0.1984;117.979;137.515;104.853;341.117
112.792.969;16.026;96.612;134.768;123.779;362.179
112.812.500;19.994;84.402;128.968;136.600;383.242
112.832.031;28.541;73.107;117.369;139.957;387.515
112.851.563;52.045;58.761;102.717;135.073;371.947
112.871.094;91.117;44.414;90.201;123.779;358.211
112.890.625;142.399;34.341;80.433;108.211;351.801
112.910.156;180.861;29.151;73.107;96.612;347.222
112.929.688;187.271;23.657;70.055;95.391;352.717
112.949.219;169.872;21.215;71.276;101.190;359.432
112.968.750;143.926;27.320;74.939;107.601;348.748
112.988.281;116.453;38.004;78.297;109.737;330.739
113.007.813;102.106;46.245;77.381;105.769;302.961
113.027.344;123.168;46.856;72.497;95.696;251.068
113.046.875;174.756;42.582;65.171;80.128;194.292
113.066.406;249.237;37.393;55.098;61.203;133.852
113.085.938;346.612;34.035;45.330;47.161;62.118
113.105.469;433.608;30.983;41.972;45.330;0.2900
113.125.000;478.175;19.383;40.140;48.077;-29.457
113.144.531;473.596;-0.2289;33.730;46.245;-45.024
113.164.063;425.672;-19.078;30.678;42.888;-47.466
113.183.594;368.590;-22.131;36.783;41.361;-27.320
113.203.125;321.276;-13.278;48.382;40.751;0.3816
113.222.656;258.089;0.5037;61.508;45.330;33.425
113.242.188;163.462;30.372;76.160;61.508;82.570
113.261.719;56.319;58.455;92.643;86.233;159.188
113.281.250;-40.751;83.791;108.516;112.485;241.911
113.300.781;-116.453;103.327;121.947;135.989;311.813
113.320.313;-163.462;117.063;132.631;154.915;351.496
113.339.844;-176.282;124.084;138.736;168.651;343.864
113.359.375;-155.525;122.558;138.431;175.366;293.498
113.378.906;-110.348;114.621;132.326;176.282;226.343
113.398.438;-56.319;106.380;121.337;170.482;151.252
113.417.969;-0.4426;97.833;107.601;157.051;59.371
113.437.500;34.951;88.065;96.917;142.399;-30.372
113.457.031;54.792;77.381;96.001;135.684;-75.244
113.476.563;63.950;65.171;101.190;132.631;-62.424
113.496.094;74.634;55.708;105.769;126.526;-21.215
113.515.625;86.538;57.845;109.432;118.895;19.078
113.535.156;96.306;67.308;112.179;112.790;46.551
113.554.688;108.211;74.939;113.706;107.906;71.886
113.574.219;124.389;77.381;113.706;103.632;107.601
113.593.750;140.568;72.802;113.095;99.969;140.873
113.613.281;151.557;62.118;110.958;95.696;161.020
113.632.813;152.778;53.877;109.737;91.728;175.366
113.652.344;144.536;55.403;111.569;89.896;175.672
113.671.875;136.600;61.508;113.400;88.065;151.252
113.691.406;137.210;64.255;110.653;84.096;124.084
113.710.938;138.126;63.645;105.464;80.739;108.516
113.730.469;128.968;67.918;104.548;82.570;112.179
113.750.000;115.537;77.686;108.211;88.980;131.410
113.769.531;106.685;86.233;112.485;96.306;142.399
113.789.063;103.022;90.201;114.316;103.632;139.957
113.808.594;104.548;89.896;114.011;110.348;132.326
113.828.125;114.927;86.233;110.043;114.316;128.358
113.847.656;132.021;76.160;101.496;114.927;136.905
113.867.188;143.926;62.424;90.507;115.842;157.967
113.886.719;148.810;54.182;81.349;119.811;185.440
113.906.250;154.304;53.571;74.328;124.389;205.891
113.925.781;160.714;56.319;68.834;125.611;211.996
113.945.313;163.462;59.982;66.087;123.474;210.165
113.964.844;166.514;62.118;63.645;119.505;198.565
113.984.375;177.808;59.982;58.455;112.179;172.314
114.003.906;193.376;52.656;52.961;104.853;152.778
114.023.438;197.650;45.024;52.961;102.411;156.441
114.042.969;186.661;43.498;58.455;102.106;168.651
114.062.500;173.840;46.856;62.729;98.748;176.282
114.082.031;165.904;52.045;62.424;92.643;178.419
114.101.563;160.104;57.540;62.424;90.201;177.503
114.121.094;151.252;60.592;65.781;93.254;174.451
114.140.625;143.315;60.287;68.834;95.391;159.799
114.160.156;147.894;54.487;66.697;92.949;120.726
114.179.688;172.009;39.225;58.761;86.233;70.971
114.199.219;200.702;27.015;52.656;80.433;42.277
114.218.750;209.249;31.593;55.098;78.907;39.225
114.238.281;199.176;44.109;61.813;78.907;34.951
114.257.813;186.050;52.350;66.087;77.686;23.352
114.277.344;178.114;56.013;64.866;75.244;27.320
114.296.875;174.451;55.098;60.897;72.192;53.571
114.316.406;168.651;51.740;58.455;71.581;92.338
114.335.938;158.883;44.719;58.761;75.244;142.094
114.355.469;146.062;32.509;59.676;81.044;194.292
114.375.000;128.968;19.383;60.287;86.538;226.343
114.394.531;108.516;0.8700;60.287;90.201;236.416
114.414.063;88.065;-0.0458;58.455;89.896;244.048
114.433.594;74.023;-12.973;53.266;84.096;246.184
114.453.125;81.960;-30.372;45.330;73.107;218.712
114.472.656;115.537;-43.803;38.614;59.676;179.335
114.492.188;146.062;-44.414;34.646;47.466;164.988
114.511.719;147.894;-36.783;31.288;36.783;153.694
114.531.250;129.274;-25.183;26.404;26.099;112.485
114.550.781;112.790;-11.447;19.078;12.363;53.877
114.570.313;104.243;-0.0763;0.9005;-0.3510;-0.1068
114.589.844;90.201;0.4731;0.2595;-14.194;-38.309
114.609.375;60.287;0.5342;0.3816;-13.278;-55.403
114.628.906;23.352;0.0153;0.8394;-0.4731;-51.435
114.648.438;-0.4426;-12.363;11.447;0.5037;-31.288
114.667.969;-18.773;-30.372;10.836;12.668;-28.846
114.687.500;-24.878;-51.129;0.6258;14.805;-69.139
114.707.031;-33.425;-70.971;0.1679;14.499;-120.116
114.726.563;-55.403;-82.875;0.5037;19.078;-122.863
114.746.094;-86.844;-84.402;15.720;28.846;-56.929
114.765.625;-103.632;-85.317;24.267;38.614;38.309
114.785.156;-89.286;-92.949;25.488;47.161;104.243
114.804.688;-59.982;-102.411;22.436;56.624;130.800
114.824.219;-51.129;-107.601;19.689;67.613;157.662
114.843.750;-74.023;-110.043;15.415;77.991;197.650
114.863.281;-118.284;-114.621;0.7784;83.791;217.796
114.882.813;-169.261;-121.947;-0.1984;81.654;197.650
114.902.344;-212.302;-131.410;-12.668;73.107;150.336
114.921.875;-244.963;-139.957;-23.046;62.118;100.275
114.941.406;-261.447;-147.283;-31.288;51.740;54.792
114.960.938;-245.879;-154.915;-37.088;41.056;13.278
114.980.469;-211.691;-161.325;-40.446;30.678;-16.026
115.000.000;-197.650;-165.293;-42.888;19.994;-27.320
115.019.531;-214.133;-168.040;-43.803;0.9921;-30.372
115.039.063;-247.405;-169.872;-42.277;0.1679;-30.067
115.058.594;-281.899;-169.872;-37.698;-0.2595;-21.215
115.078.125;-296.245;-169.567;-30.067;-0.4121;-12.668
115.097.656;-285.867;-171.703;-23.657;-0.2595;-17.247
115.117.188;-270.604;-176.282;-19.994;0.2289;-27.625
115.136.719;-270.910;-178.114;-16.941;0.9005;-34.951
115.156.250;-289.835;-175.061;-12.973;15.720;-47.466
115.175.781;-318.223;-168.651;-0.8089;21.215;-84.402
115.195.313;-344.475;-161.020;-0.3816;25.488;-129.579
115.214.844;-360.043;-153.388;-0.1679;27.320;-148.810
115.234.375;-363.095;-148.504;-0.2289;25.488;-152.167
115.253.906;-359.127;-147.589;-0.6563;20.604;-153.694
115.273.438;-353.938;-147.894;-11.752;15.720;-140.263
115.292.969;-346.612;-148.199;-16.636;11.752;-116.758
115.312.500;-330.433;-150.336;-20.910;0.8700;-96.306
115.332.031;-299.603;-150.946;-23.962;0.5647;-72.497
115.351.563;-257.173;-145.757;-25.183;0.4426;-40.140
115.371.094;-212.912;-138.126;-24.573;0.5342;-10.836
115.390.625;-174.451;-130.189;-22.131;0.7784;0.5037
115.410.156;-148.199;-122.253;-17.857;10.836;0.6563
115.429.688;-136.600;-116.758;-12.668;14.194;-0.5037
115.449.219;-133.242;-114.316;-0.7173;16.941;-26.099
115.468.750;-126.832;-111.874;-0.1679;18.773;-61.813
115.488.281;-112.485;-106.685;0.3510;20.299;-126.221
115.507.813;-85.928;-100.885;0.7479;19.689;-200.092
115.527.344;-40.446;-98.138;0.7479;15.415;-233.669
115.546.875;0.2289;-97.833;0.3816;0.7784;-219.322
115.566.406;13.278;-95.391;-0.1374;-0.1679;-193.987
115.585.938;-0.5342;-89.896;-0.7479;-11.447;-171.398
115.605.469;-31.899;-81.654;-12.668;-18.468;-137.515
115.625.000;-49.603;-71.886;-16.026;-19.994;-92.949
115.644.531;-54.792;-62.118;-17.552;-18.773;-55.708
115.664.063;-50.214;-53.266;-17.247;-16.331;-26.709
115.683.594;-39.835;-45.940;-16.636;-12.363;0.6258
115.703.125;-33.120;-39.835;-15.415;-0.7784;46.856
115.722.656;-30.372;-35.867;-12.668;-0.2900;85.928
115.742.188;-19.689;-37.088;-0.8394;0.0763;102.411
115.761.719;0.4121;-42.888;-0.4121;0.2900;87.149
115.781.250;30.067;-48.077;-0.0458;0.4121;58.455
115.800.781;50.519;-48.993;0.2595;0.7479;36.783
115.820.313;69.444;-46.245;0.6563;11.447;27.320
115.839.844;88.675;-41.972;10.531;15.110;27.625
115.859.375;103.632;-37.088;14.499;18.162;35.867
115.878.906;110.043;-30.983;17.247;20.604;48.382
115.898.438;110.043;-23.046;17.857;22.741;61.508
115.917.969;104.548;-13.278;16.331;23.657;59.066
115.937.500;95.391;-0.5647;14.499;23.962;27.015
115.957.031;88.675;-0.2900;12.973;23.352;-0.8394
115.976.563;87.454;-0.5037;11.447;23.962;-0.9615
115.996.094;90.507;-0.5647;11.142;27.930;13.889
116.015.625;101.801;-0.3510;13.889;36.172;27.930
116.035.156;122.558;-0.2289;17.857;47.772;35.562
116.054.688;143.926;-0.3205;22.131;61.203;62.729
116.074.219;157.662;-0.4731;25.794;71.581;101.801
116.093.750;163.462;-0.5647;27.625;74.939;132.937
116.113.281;162.546;-0.4426;27.625;73.107;144.841
116.132.813;154.915;0.0153;27.625;68.529;116.758
116.152.344;144.231;0.5037;27.930;63.034;54.487
116.171.875;140.263;0.9310;28.236;56.929;-0.2900
116.191.406;147.894;12.363;29.151;50.519;-31.288
116.210.938;162.851;14.499;30.678;43.803;-39.835
116.230.469;179.640;15.110;32.204;35.562;-40.140
116.250.000;197.344;14.805;34.951;28.236;-26.099
116.269.531;215.354;13.889;39.835;26.709;0.1984
116.289.063;228.785;11.142;44.414;28.541;35.256
116.308.594;232.753;0.6868;47.161;30.983;51.435
116.328.125;230.922;0.2900;50.214;33.425;29.762
116.347.656;233.059;-0.1068;53.877;34.646;-0.3816
116.367.188;240.690;-0.5037;57.540;34.951;-12.057
116.386.719;244.353;-0.6563;59.371;37.088;0.5647
116.406.250;238.858;-0.6563;58.455;42.277;36.783
116.425.781;228.480;-0.5342;56.624;52.350;66.087
116.445.313;216.880;-0.3510;55.098;67.002;78.907
116.464.844;202.228;-0.1374;53.266;82.570;74.939
116.484.375;183.608;0.1374;50.214;94.780;56.013
116.503.906;165.598;0.4731;46.245;100.580;32.204
116.523.438;152.778;0.8700;42.582;102.106;30.983
116.542.969;143.315;14.499;41.056;102.411;48.993
116.562.500;133.852;20.910;42.277;98.748;50.519
116.582.031;126.832;25.794;43.498;91.422;20.604
116.601.563;127.137;27.930;42.888;82.265;-30.067
116.621.094;134.463;27.625;39.530;71.581;-71.886
116.640.625;145.757;25.488;34.035;58.455;-79.518
116.660.156;157.357;19.994;26.709;42.582;-67.613
116.679.688;165.293;12.363;17.552;26.709;-56.624
116.699.219;167.430;0.5342;0.8700;13.889;-32.204
116.718.750;164.072;0.0153;0.1679;0.5342;15.110
116.738.281;158.272;-0.3816;-0.3510;0.0763;68.834
116.757.813;152.167;-0.7173;-0.7784;0.0458;110.958
116.777.344;146.368;-0.9310;-11.752;0.2595;141.789
116.796.875;141.484;-10.836;-15.110;0.3510;159.493
116.816.406;137.515;-14.499;-17.857;0.0153;151.862
116.835.938;139.347;-20.299;-21.825;-0.6258;125.000
116.855.469;155.525;-26.404;-27.015;-14.194;92.949
116.875.000;179.029;-30.678;-31.899;-21.825;60.287
116.894.531;190.934;-30.678;-34.951;-27.015;36.477
116.914.063;185.440;-26.709;-34.341;-27.625;28.541
116.933.594;171.398;-19.383;-30.983;-23.657;34.646
116.953.125;155.525;-12.057;-28.541;-17.247;36.477
116.972.656;140.873;-0.6868;-29.762;-0.9921;18.468
116.992.188;131.105;-0.5037;-33.730;-0.5952;0.0153
117.011.719;127.137;-0.5037;-37.393;-0.6868;0.5037
117.031.250;127.137;-0.4121;-39.225;-0.8700;32.509
117.050.781;129.884;-0.4121;-38.614;-0.8700;58.761
117.070.313;132.937;-0.4121;-37.698;-0.7479;64.560
117.089.844;131.410;-0.3510;-37.698;-0.7479;56.319
117.109.375;125.000;-0.2900;-38.309;-0.9310;57.540
117.128.906;117.063;-0.2289;-38.309;-12.973;81.044
117.148.438;111.569;-0.1068;-38.004;-18.468;116.758
117.167.969;112.485;-0.1374;-37.393;-24.573;144.231
117.187.500;119.505;-0.2900;-34.341;-30.372;152.473
117.207.031;126.221;-0.0153;-27.625;-33.120;151.557
117.226.563;129.884;0.8394;-18.773;-31.288;160.409
117.246.094;132.326;18.162;-10.836;-26.404;174.145
117.265.625;134.768;25.794;-0.4426;-19.994;171.093
117.285.156;136.294;30.372;0.0153;-14.499;135.989
117.304.688;137.515;30.983;0.1984;-11.752;74.328
117.324.219;138.736;28.541;0.0458;-10.836;19.994
117.343.750;139.042;24.573;-0.3816;-11.447;-13.278
117.363.281;137.515;19.994;-0.9615;-11.447;-30.678
117.382.813;134.158;14.805;-14.805;-10.531;-25.488
117.402.344;129.884;0.9615;-18.773;-10.226;-10.836
117.421.875;127.442;0.3510;-22.436;-12.057;-0.9921
117.441.406;127.442;-0.3816;-26.709;-18.162;-30.067
117.460.938;127.442;-12.363;-31.288;-27.320;-65.781
117.480.469;127.137;-20.604;-36.783;-37.088;-92.338
117.500.000;126.526;-26.099;-41.361;-45.635;-86.233
117.519.531;124.389;-29.151;-44.109;-52.961;-56.319
117.539.063;119.505;-29.457;-45.940;-58.455;-23.046
117.558.594;113.400;-28.541;-48.382;-63.034;-0.1984
117.578.125;109.737;-27.625;-52.350;-68.529;-0.0458
117.597.656;112.790;-27.625;-58.150;-75.549;-21.825
117.617.188;121.947;-28.541;-63.339;-81.044;-54.182
117.636.719;132.326;-28.846;-68.223;-83.486;-74.023
117.656.250;139.957;-28.541;-72.497;-83.486;-83.791
117.675.781;144.231;-29.762;-75.549;-81.349;-94.475
117.695.313;151.862;-32.814;-75.855;-76.770;-100.580
117.714.844;172.924;-37.088;-73.413;-71.276;-91.422
117.734.375;194.597;-40.446;-69.444;-64.866;-62.118
117.753.906;193.376;-41.361;-63.950;-56.013;-16.941
117.773.438;173.535;-39.530;-57.845;-45.940;31.899
117.792.969;152.473;-37.393;-53.266;-37.088;71.581
117.812.500;135.379;-35.256;-50.824;-30.067;98.443
117.832.031;123.168;-34.341;-48.993;-24.267;126.221
117.851.563;117.674;-34.341;-47.161;-18.773;155.830
117.871.094;121.642;-34.646;-45.635;-16.331;154.609
117.890.625;128.053;-36.477;-45.330;-18.773;115.537
117.910.156;123.779;-37.393;-45.330;-24.267;74.634
117.929.688;108.822;-34.646;-44.719;-28.541;52.961
117.949.219;93.864;-30.067;-42.582;-31.899;41.972
117.968.750;84.402;-25.794;-40.751;-34.951;32.814
117.988.281;80.739;-23.046;-39.835;-37.393;23.962
118.007.813;80.128;-22.131;-40.751;-41.056;0.9310
118.027.344;80.433;-22.436;-42.888;-46.245;-18.162
118.046.875;80.433;-22.131;-42.888;-49.908;-57.540
118.066.406;77.076;-21.825;-39.530;-49.603;-99.054
118.085.938;73.718;-22.741;-34.035;-46.245;-123.779
118.105.469;80.128;-25.488;-28.236;-41.056;-117.979
118.125.000;92.949;-27.930;-23.046;-33.120;-90.507
118.144.531;99.969;-28.846;-18.773;-23.352;-54.487
118.164.063;98.443;-27.930;-14.805;-13.584;-15.720
118.183.594;93.864;-26.404;-10.836;-0.6258;18.468
118.203.125;88.675;-23.352;-0.7479;-0.1374;42.888
118.222.656;82.265;-18.773;-0.3510;0.2289;57.845
118.242.188;72.497;-11.447;0.0153;0.5037;67.002
118.261.719;60.897;-0.3205;0.1679;0.7479;75.549
118.281.250;50.519;0.3816;0.1374;0.9005;83.181
118.300.781;42.888;0.8394;0.0153;0.9921;93.864
118.320.313;39.835;10.531;0.0458;10.836;126.832
118.339.844;41.667;10.226;0.1374;10.836;177.503
118.359.375;45.330;0.8089;0.1068;0.7784;209.249
118.378.906;49.908;0.4121;0.0153;0.2289;205.281
118.398.438;55.403;-0.1984;-0.2595;-0.1068;180.250
118.417.969;59.676;-11.142;-0.5647;-0.1984;144.841
118.437.500;60.592;-21.520;-0.7784;-0.1374;100.885
118.457.031;58.150;-28.846;-0.7479;-0.1068;64.560
118.476.563;53.571;-30.678;-0.5952;-0.1984;46.856
118.496.094;49.298;-28.846;-0.3816;-0.4426;34.646
118.515.625;48.382;-25.488;-0.2900;-0.8089;0.3510
118.535.156;51.740;-21.520;-0.2900;-12.057;-54.792
118.554.688;57.845;-17.247;-0.3205;-16.331;-123.474
118.574.219;67.308;-12.363;-0.3205;-21.825;-174.451
118.593.750;80.128;-0.8089;-0.3816;-30.678;-192.460
118.613.281;99.664;-0.5037;-0.4426;-39.835;-177.503
118.632.813;127.137;-0.3205;-0.4121;-44.719;-132.937
118.652.344;152.778;-0.1984;-0.3510;-43.498;-67.613
118.671.875;163.462;-0.0153;-0.4426;-39.225;-0.5647
118.691.406;161.935;0.1374;-0.8089;-36.172;30.372
118.710.938;156.136;0.1679;-13.278;-34.646;23.352
118.730.469;141.789;0.0153;-17.552;-31.899;-16.026
118.750.000;116.758;-0.1679;-19.078;-26.404;-39.530
118.769.531;87.454;-0.5037;-17.552;-19.994;-19.383
118.789.063;64.866;-11.447;-15.415;-15.720;32.509
118.808.594;57.540;-21.520;-15.415;-16.026;85.928
118.828.125;64.560;-31.593;-17.552;-19.994;96.306
118.847.656;71.276;-38.614;-19.994;-25.794;47.161
118.867.188;66.697;-41.361;-20.910;-30.983;-22.741
118.886.719;54.487;-41.667;-19.689;-32.814;-60.592
118.906.250;42.582;-41.056;-17.857;-31.288;-63.950
118.925.781;37.088;-41.361;-16.941;-27.320;-63.339
118.945.313;44.414;-45.024;-19.383;-22.741;-63.339
118.964.844;65.476;-51.740;-23.352;-17.857;-55.403
118.984.375;88.675;-55.098;-23.962;-12.973;-45.024
119.003.906;100.580;-54.792;-21.825;-10.531;-47.466
119.023.438;100.275;-53.266;-19.689;-11.142;-60.592
119.042.969;93.864;-50.824;-17.552;-12.668;-71.276
119.062.500;92.033;-50.519;-16.636;-15.720;-79.212
119.082.031;106.685;-54.792;-17.247;-21.825;-84.707
119.101.563;132.326;-59.371;-18.162;-27.320;-87.759
119.121.094;141.484;-60.592;-18.468;-28.541;-102.106
119.140.625;125.611;-59.066;-18.773;-26.099;-125.611
119.160.156;99.664;-55.403;-16.026;-23.046;-149.725
119.179.688;77.686;-49.603;-10.226;-19.383;-188.187
119.199.219;63.034;-46.245;-0.3205;-15.110;-232.448
119.218.750;55.708;-50.519;0.1679;-10.836;-251.068
119.238.281;53.571;-60.897;0.4426;-0.7784;-239.469
119.257.813;55.098;-71.581;0.4426;-0.6563;-213.523
119.277.344;67.002;-77.991;0.2900;-0.7173;-178.724
119.296.875;81.960;-77.991;0.2289;-0.7173;-132.326
119.316.406;78.907;-70.055;0.4426;-0.6258;-67.918
119.335.938;55.098;-57.540;0.7479;-0.4121;0.9615
119.355.469;26.099;-46.245;0.9005;-0.1068;68.223
119.375.000;0.1679;-37.088;0.8089;0.1679;85.928
119.394.531;-19.078;-28.236;0.6258;0.4121;75.549
119.414.063;-39.835;-19.994;0.3816;0.5342;54.792
119.433.594;-54.792;-12.668;0.1374;0.4731;33.730
119.453.125;-59.982;-0.8394;0.1374;0.2900;26.404
119.472.656;-62.424;-0.7173;0.4731;0.0458;45.330
119.492.188;-63.339;-0.7784;10.531;0.0153;78.602
119.511.719;-55.098;-11.447;15.415;0.1679;101.496
119.531.250;-28.541;-20.299;17.857;0.1374;107.601
119.550.781;0.9310;-33.425;18.162;-0.3510;96.001
119.570.313;41.972;-47.161;16.941;-12.057;62.729
119.589.844;59.676;-58.455;12.363;-19.383;13.584
119.609.375;64.866;-64.866;0.3816;-22.436;-54.792
119.628.906;58.761;-66.697;-0.6563;-21.215;-141.484
119.648.438;45.635;-66.087;-16.636;-17.857;-210.470
119.667.969;32.814;-64.255;-23.962;-12.973;-233.974
119.687.500;23.962;-62.424;-28.846;-0.6258;-216.575
119.707.031;16.026;-62.118;-32.509;0.0153;-177.808
119.726.563;0.9921;-63.645;-36.172;0.3816;-137.821
119.746.094;11.447;-66.392;-39.530;0.5037;-92.643
119.765.625;20.604;-68.223;-41.056;0.4731;-35.867
119.785.156;30.067;-65.171;-38.614;0.4121;26.404
119.804.688;37.088;-55.708;-32.509;0.4731;89.591
119.824.219;43.193;-44.719;-26.709;0.3816;132.021
119.843.750;47.466;-38.309;-23.352;0.0458;126.832
119.863.281;50.214;-36.477;-22.436;-0.4731;81.654
119.882.813;52.656;-35.867;-22.131;-10.836;17.247
119.902.344;55.098;-35.562;-20.910;-16.026;-60.592
119.921.875;57.540;-34.951;-18.468;-17.857;-143.315
119.941.406;60.897;-36.783;-16.331;-18.162;-213.828
119.960.938;68.529;-42.888;-16.331;-20.604;-259.005
119.980.469;79.212;-51.740;-18.773;-25.794;-274.573
120.000.000;87.759;-58.761;-21.825;-28.236;-265.415
120.019.531;89.286;-62.729;-23.657;-27.015;-247.100
120.039.063;85.317;-64.866;-23.352;-24.267;-224.206
120.058.594;80.433;-65.476;-21.825;-21.215;-179.945
120.078.125;77.076;-63.645;-18.468;-16.026;-123.474
120.097.656;74.023;-60.897;-13.584;-0.7784;-80.739
120.117.188;71.581;-59.066;-0.8089;0.0458;-46.245
120.136.719;70.971;-59.371;-0.3816;0.5647;-0.9310
120.156.250;71.581;-62.118;-0.2900;0.5952;18.773
120.175.781;73.413;-67.002;-0.4426;0.2900;27.015
120.195.313;75.855;-71.886;-0.5952;0.0153;19.078
120.214.844;77.381;-75.244;-0.5952;-0.0458;0.7479
120.234.375;77.076;-78.297;-0.5342;0.0153;0.0153
120.253.906;77.381;-81.960;-0.5342;0.1374;-10.836
120.273.438;76.770;-85.928;-0.4426;0.3205;-29.457
120.292.969;74.939;-89.896;-0.2595;0.7173;-53.877
120.312.500;73.107;-94.475;0.0153;13.889;-82.570
120.332.031;72.497;-99.969;0.3816;20.299;-106.380
120.351.563;69.750;-102.717;0.8394;25.794;-109.127
120.371.094;64.255;-99.969;12.973;30.067;-94.780
120.390.625;60.592;-94.780;16.331;31.593;-92.338
120.410.156;61.508;-89.286;18.468;32.204;-106.990
120.429.688;63.950;-83.181;19.689;34.341;-112.485
120.449.219;64.866;-76.770;19.994;36.783;-87.454
120.468.750;63.950;-70.971;19.994;37.088;-34.646
120.488.281;61.813;-65.476;19.994;36.477;13.889
120.507.813;61.813;-60.897;19.078;37.088;28.541
120.527.344;64.560;-57.234;18.162;39.225;14.194
120.546.875;67.308;-54.487;17.552;42.582;-0.8089
120.566.406;68.529;-52.656;16.941;47.161;-30.983
120.585.938;67.918;-52.656;16.026;52.045;-50.214
120.605.469;65.781;-54.182;15.110;56.929;-60.592
120.625.000;64.866;-56.013;14.194;62.424;-55.403
120.644.531;67.613;-59.066;12.057;67.002;-38.614
120.664.063;74.939;-63.034;0.8700;68.223;-17.552
120.683.594;82.875;-67.002;0.4731;67.613;0.7173
120.703.125;85.317;-69.139;0.1679;69.139;24.878
120.722.656;81.654;-68.223;0.1068;72.497;28.236
120.742.188;76.160;-65.171;0.1984;75.244;23.962
120.761.719;72.497;-62.118;0.2289;75.244;17.552
120.781.250;71.276;-60.592;0.1679;72.802;0.6563
120.800.781;70.665;-59.982;0.1068;69.444;-15.720
120.820.313;70.971;-59.066;0.2289;66.697;-45.635
120.839.844;71.581;-57.234;0.5952;64.560;-65.781
120.859.375;68.223;-54.487;10.226;61.508;-74.634
120.878.906;58.455;-52.656;12.973;57.845;-78.602
120.898.438;43.803;-52.961;12.973;52.656;-74.328
120.917.969;30.983;-55.403;10.226;44.719;-59.676
120.937.500;33.120;-58.455;0.6868;36.477;-54.182
120.957.031;48.077;-61.508;0.4121;31.288;-85.928
120.976.563;60.897;-67.308;0.1068;28.236;-125.305
120.996.094;70.665;-74.634;-0.2289;28.541;-116.453
121.015.625;81.654;-77.686;-0.3816;31.899;-63.339
121.035.156;94.170;-75.549;-0.3205;36.477;-0.4426
121.054.688;106.685;-72.192;-0.2900;38.919;36.477
121.074.219;109.127;-70.055;-0.4121;38.614;43.803
121.093.750;95.696;-67.918;-0.5952;38.004;16.941
121.113.281;74.634;-63.645;-0.6868;38.919;-17.857
121.132.813;53.266;-58.150;-0.7173;40.140;-43.193
121.152.344;34.341;-52.961;-0.6258;41.972;-52.350
121.171.875;17.247;-51.129;-0.2900;45.330;-38.614
121.191.406;0.1679;-53.266;0.1068;49.603;-13.584
121.210.938;-0.9615;-58.761;0.3816;53.266;0.4121
121.230.469;-17.552;-65.781;0.4121;57.234;0.5952
121.250.000;-24.878;-70.055;0.3816;60.897;-12.057
121.269.531;-28.236;-70.665;0.3205;62.118;-51.435
121.289.063;-26.099;-69.444;0.2595;61.203;-108.822
121.308.594;-19.689;-67.002;0.1984;59.371;-157.357
121.328.125;-11.447;-63.339;0.0458;58.150;-167.735
121.347.656;-0.1068;-59.676;-0.1374;58.455;-149.420
121.367.188;12.363;-57.540;-0.5647;59.982;-129.579
121.386.719;26.404;-56.013;-0.9921;60.592;-102.411
121.406.250;34.341;-53.266;-11.142;59.066;-57.845
121.425.781;33.425;-49.603;-0.9615;56.013;-20.299
121.445.313;27.320;-47.161;-0.7784;52.350;-0.3816
121.464.844;19.994;-46.245;-0.6563;48.993;-0.3205
121.484.375;15.415;-45.635;-0.5037;46.856;-0.3816
121.503.906;14.499;-44.719;-0.3510;45.940;0.7784
121.523.438;15.110;-44.109;-0.3205;45.024;28.236
121.542.969;18.468;-43.193;-0.3205;42.888;50.214
121.562.500;22.436;-41.972;-0.2900;38.614;66.697
121.582.031;21.215;-41.361;-0.2595;33.425;64.560
121.601.563;13.584;-40.446;-0.4121;30.067;41.056
121.621.094;0.1984;-39.225;-0.7479;30.372;0.8089
121.640.625;-0.7173;-38.004;-11.752;33.120;-17.552
121.660.156;-0.8089;-35.562;-16.026;35.562;-25.794
121.679.688;0.0458;-32.509;-19.383;34.646;-23.962
121.699.219;14.499;-30.067;-20.910;30.983;-23.657
121.718.750;23.657;-29.762;-20.604;28.236;-28.236
121.738.281;18.773;-32.204;-19.994;27.320;-34.341
121.757.813;0.0153;-38.309;-20.604;26.404;-38.919
121.777.344;-23.657;-48.077;-23.046;23.962;-47.161
121.796.875;-42.888;-60.592;-27.625;19.383;-61.203
121.816.406;-54.487;-71.276;-32.204;13.584;-70.360
121.835.938;-64.866;-77.991;-36.477;0.8089;-67.002
121.855.469;-81.960;-83.486;-41.361;0.1984;-59.371
121.875.000;-110.043;-92.033;-48.687;-0.5037;-67.918
121.894.531;-142.399;-106.074;-59.676;-13.889;-103.022
121.914.063;-170.788;-122.863;-73.107;-22.131;-149.420
121.933.594;-193.071;-134.768;-83.791;-28.846;-195.818
121.953.125;-212.302;-138.126;-89.286;-33.425;-241.606
121.972.656;-228.785;-136.600;-91.117;-36.783;-276.709
121.992.188;-245.269;-134.768;-92.033;-39.225;-302.656
122.011.719;-266.636;-132.937;-91.117;-41.056;-324.939
122.031.250;-293.498;-133.242;-88.370;-42.277;-331.960
122.050.781;-323.107;-136.600;-85.317;-43.803;-323.413
122.070.313;-351.190;-141.789;-83.791;-45.330;-321.276
122.089.844;-372.253;-149.115;-83.486;-47.161;-336.844
122.109.375;-376.832;-157.357;-83.791;-47.466;-358.822
122.128.906;-359.737;-165.598;-84.096;-45.330;-372.863
122.148.438;-344.475;-172.314;-85.317;-42.582;-382.631
122.167.969;-359.127;-176.893;-88.370;-42.277;-395.147
122.187.500;-400.031;-178.419;-91.117;-43.193;-406.746
122.207.031;-446.429;-178.419;-92.338;-43.193;-414.683
122.226.563;-487.027;-179.029;-91.728;-41.361;-416.514
122.246.094;-524.573;-181.166;-91.117;-39.225;-413.767
122.265.625;-562.729;-184.829;-93.254;-39.530;-416.819
122.285.156;-595.391;-191.850;-97.833;-43.498;-429.640
122.304.688;-619.506;-202.534;-104.243;-50.214;-442.766
122.324.219;-638.431;-213.523;-111.569;-58.150;-452.839
122.343.750;-653.083;-219.322;-117.674;-66.697;-462.912
122.363.281;-661.630;-219.017;-121.337;-71.886;-476.038
122.382.813;-665.904;-214.744;-121.947;-73.107;-493.742
122.402.344;-667.735;-208.639;-121.032;-70.971;-507.479
122.421.875;-665.904;-201.007;-116.758;-65.476;-501.984
122.441.406;-657.967;-192.460;-108.516;-57.540;-474.817
122.460.938;-647.283;-183.303;-98.748;-49.298;-440.018
122.480.469;-639.957;-174.145;-89.591;-40.751;-410.409
122.500.000;-639.347;-167.430;-82.570;-34.646;-397.283
122.519.531;-641.484;-163.156;-78.297;-32.204;-399.725
122.539.063;-640.263;-160.104;-75.855;-33.730;-398.199
122.558.594;-632.937;-157.662;-74.939;-37.393;-383.852
122.578.125;-618.895;-156.136;-76.160;-42.888;-378.968
122.597.656;-598.138;-157.357;-80.433;-50.824;-400.641
122.617.188;-571.886;-160.409;-86.538;-60.592;-434.524
122.636.719;-540.751;-162.241;-92.338;-70.665;-476.648
122.656.250;-507.479;-159.799;-96.001;-79.212;-521.825
122.675.781;-476.343;-153.083;-98.748;-85.623;-556.013
122.695.313;-449.481;-146.062;-102.411;-91.422;-585.623
122.714.844;-422.314;-139.957;-107.295;-96.306;-612.179
122.734.375;-392.705;-131.716;-111.264;-98.748;-608.822
122.753.906;-363.706;-120.421;-112.790;-97.833;-555.403
122.773.438;-340.507;-111.569;-112.790;-93.254;-479.090
122.792.969;-323.718;-109.432;-114.621;-88.675;-429.640
122.812.500;-311.508;-112.485;-117.979;-86.538;-421.093
122.832.031;-300.824;-114.621;-118.590;-85.623;-424.451
122.851.563;-290.140;-113.400;-114.316;-83.181;-412.851
122.871.094;-283.120;-109.432;-107.295;-78.907;-386.600
122.890.625;-281.593;-105.159;-99.054;-74.328;-369.811
122.910.156;-283.730;-101.801;-90.507;-70.971;-378.053
122.929.688;-288.004;-99.969;-82.265;-69.139;-399.420
122.949.219;-292.582;-99.969;-75.244;-69.444;-421.703
122.968.750;-294.414;-99.969;-70.971;-71.276;-444.902
122.988.281;-291.361;-99.664;-69.750;-74.328;-465.049
123.007.813;-283.425;-98.748;-71.581;-78.297;-473.901
123.027.344;-268.162;-96.917;-75.549;-82.875;-481.838
123.046.875;-244.963;-95.391;-81.654;-89.896;-507.784
123.066.406;-217.186;-95.085;-89.591;-98.748;-545.330
123.085.938;-192.766;-90.812;-95.696;-106.685;-564.866
123.105.469;-174.756;-79.518;-96.001;-111.264;-550.519
123.125.000;-161.020;-64.866;-90.812;-112.790;-514.194
123.144.531;-146.978;-52.045;-82.570;-112.790;-480.006
123.164.063;-131.716;-41.972;-74.023;-111.264;-462.302
123.183.594;-114.316;-34.646;-65.171;-107.601;-465.965
123.203.125;-97.527;-30.067;-56.929;-101.496;-486.111
123.222.656;-87.149;-28.236;-50.519;-93.559;-497.405
123.242.188;-81.960;-27.930;-44.414;-85.012;-482.448
123.261.719;-79.518;-28.846;-38.919;-77.991;-455.891
123.281.250;-78.602;-30.678;-34.341;-73.718;-433.913
123.300.781;-76.770;-31.593;-30.678;-70.360;-420.788
123.320.313;-73.107;-31.899;-27.015;-66.087;-419.261
123.339.844;-68.223;-31.593;-23.657;-59.371;-425.366
123.359.375;-61.508;-31.288;-20.604;-52.045;-435.440
123.378.906;-53.571;-30.983;-18.468;-46.551;-451.007
123.398.438;-45.940;-29.151;-16.331;-44.109;-466.880
123.417.969;-40.751;-24.573;-14.499;-43.498;-469.628
123.437.500;-38.919;-17.552;-12.057;-42.888;-467.796
123.457.031;-39.530;-10.226;-0.9005;-40.446;-485.195
123.476.563;-39.835;-0.4121;-0.5037;-34.341;-510.226
123.496.094;-38.309;0.1068;-0.0153;-24.878;-506.868
123.515.625;-36.172;0.6258;0.5342;-11.752;-477.869
123.535.156;-32.204;0.8394;10.226;0.2900;-451.007
123.554.688;-23.352;0.6868;12.973;19.994;-438.187
123.574.219;-12.973;0.7479;15.110;39.225;-434.829
123.593.750;-0.5037;14.194;18.162;58.761;-428.724
123.613.281;0.0763;22.741;21.215;76.160;-417.430
123.632.813;0.7173;28.236;22.741;91.728;-400.641
123.652.344;15.110;30.983;23.352;107.601;-375.000
123.671.875;23.657;30.372;22.131;123.779;-340.201
123.691.406;30.372;27.930;19.994;138.126;-290.446
123.710.938;32.814;26.404;17.857;148.810;-222.070
123.730.469;30.983;25.183;17.247;156.136;-154.609
123.750.000;27.015;23.657;17.857;160.409;-112.485
123.769.531;26.099;21.215;18.468;159.493;-99.969
123.789.063;29.151;18.468;19.078;154.609;-113.400
123.808.594;32.509;16.026;19.689;146.978;-142.705
123.828.125;32.814;14.499;18.162;137.210;-174.451
123.847.656;30.983;12.668;15.415;126.221;-197.039
123.867.188;27.320;10.226;12.363;113.706;-209.249
123.886.719;22.741;0.8089;0.8700;99.664;-217.796
123.906.250;19.383;0.6868;0.4426;83.181;-230.006
123.925.781;19.383;0.7173;-0.0153;67.613;-233.669
123.945.313;22.131;0.7479;-0.5342;54.792;-217.491
123.964.844;26.709;0.6258;-10.836;45.635;-197.039
123.984.375;31.593;0.4121;-16.331;39.225;-176.893
124.003.906;35.562;0.2595;-20.910;34.951;-150.946
124.023.438;38.004;0.0763;-23.657;32.204;-128.968
124.042.969;40.140;-0.2900;-26.404;30.067;-123.474
124.062.500;43.193;-10.531;-30.372;26.099;-149.115
124.082.031;46.856;-19.078;-33.730;21.825;-199.786
124.101.563;49.603;-25.183;-34.951;17.857;-247.405
124.121.094;51.435;-30.372;-35.256;13.584;-281.288
124.140.625;54.792;-37.393;-36.172;0.7784;-304.792
124.160.156;56.013;-41.056;-37.393;0.1984;-327.076
124.179.688;50.214;-39.835;-37.088;-0.2289;-340.812
124.199.219;39.835;-37.393;-37.088;-0.5952;-310.592
124.218.750;32.509;-34.341;-38.614;-0.7784;-237.332
124.238.281;30.067;-30.372;-41.361;-0.8394;-161.630
124.257.813;30.067;-26.099;-44.719;-0.9310;-101.496
124.277.344;32.509;-23.046;-48.687;-11.447;-60.287
124.296.875;39.225;-21.825;-51.435;-14.805;-43.193
124.316.406;48.687;-21.825;-52.656;-18.468;-43.498
124.335.938;58.150;-20.604;-51.435;-21.825;-52.656
124.355.469;66.392;-18.162;-48.687;-24.573;-65.781
124.375.000;77.076;-14.805;-43.803;-24.267;-86.233
124.394.531;93.254;-0.9310;-35.867;-19.383;-114.316
124.414.063;112.790;-0.1679;-25.488;-10.836;-135.073
124.433.594;130.189;0.6868;-15.110;0.0153;-135.684
124.453.125;139.652;13.278;-0.6258;12.057;-115.842
124.472.656;136.294;14.805;-0.1374;23.352;-89.896
124.492.188;122.253;12.363;0.0153;33.120;-80.128
124.511.719;107.601;0.9921;-0.1679;38.309;-86.844
124.531.250;99.969;0.8394;-0.5952;38.614;-93.559
124.550.781;98.443;0.6563;-12.363;35.256;-93.864
124.570.313;96.612;0.2289;-20.604;30.372;-93.559
124.589.844;92.338;-0.3816;-30.067;24.267;-106.990
124.609.375;87.149;-11.447;-38.919;16.331;-134.158
124.628.906;81.044;-19.689;-45.940;0.6868;-151.557
124.648.438;73.413;-27.930;-50.214;-0.1374;-151.862
124.667.969;64.866;-34.646;-50.519;-0.5647;-148.810
124.687.500;57.845;-39.225;-47.466;-0.5952;-160.714
124.707.031;56.013;-42.582;-44.414;-0.6258;-193.071
124.726.563;55.708;-43.498;-41.361;-0.8089;-219.017
124.746.094;49.908;-40.140;-38.309;-10.836;-213.523
124.765.625;38.309;-35.867;-36.172;-15.720;-189.713
124.785.156;27.625;-34.646;-36.783;-21.215;-164.988
124.804.688;23.352;-34.646;-37.698;-24.878;-144.231
124.824.219;27.015;-35.562;-38.614;-25.794;-132.326
124.843.750;34.646;-38.614;-40.446;-26.404;-133.547
124.863.281;44.414;-40.751;-43.193;-28.236;-147.283
124.882.813;56.624;-38.004;-45.024;-31.593;-169.261
124.902.344;69.444;-30.983;-45.024;-35.256;-190.324
124.921.875;78.602;-23.657;-44.109;-37.088;-199.786
124.941.406;82.875;-18.468;-42.888;-35.562;-210.775
124.960.938;82.265;-14.499;-40.446;-31.288;-236.722
124.980.469;77.076;-0.9310;-34.341;-25.488;-266.636
125.000.000;70.971;-0.2595;-25.488;-17.552;-296.245
125.019.531;69.750;0.5037;-16.636;-0.7479;-313.950
125.039.063;72.802;13.278;-0.8394;0.2289;-306.624
125.058.594;75.549;21.520;-0.1374;10.226;-289.835
125.078.125;75.549;30.067;0.4426;16.026;-274.573
125.097.656;73.413;37.698;0.8700;20.604;-256.563
125.117.188;68.529;43.803;11.447;24.878;-234.890
125.136.719;62.424;47.772;12.057;28.236;-211.081
125.156.250;57.845;48.993;11.142;29.151;-197.039
125.175.781;56.929;46.856;0.8394;27.625;-195.818
125.195.313;60.897;43.803;0.4426;26.404;-192.766
125.214.844;68.223;41.972;0.0763;27.320;-180.556
125.234.375;73.107;39.835;-0.1068;27.930;-169.567
125.253.906;74.023;38.004;-0.2595;26.404;-162.851
125.273.438;76.770;36.783;-0.1984;23.657;-154.915
125.292.969;83.181;36.783;0.0458;20.910;-151.252
125.312.500;91.117;38.309;0.5342;18.773;-154.304
125.332.031;96.917;41.056;10.836;16.636;-163.156
125.351.563;99.359;45.024;16.026;14.499;-178.114
125.371.094;99.054;48.993;20.604;13.278;-191.239
125.390.625;96.001;52.961;25.183;14.194;-198.565
125.410.156;90.201;57.234;28.846;15.415;-206.807
125.429.688;81.654;61.813;31.593;16.026;-222.680
125.449.219;73.107;66.392;34.035;16.026;-236.416
125.468.750;67.613;69.139;35.256;16.026;-239.469
125.488.281;63.645;67.918;34.341;14.805;-242.521
125.507.813;59.676;64.255;30.983;12.973;-263.889
125.527.344;59.066;60.897;27.625;16.331;-296.551
125.546.875;63.339;57.845;25.794;26.099;-299.298
125.566.406;71.886;54.792;23.962;35.562;-266.941
125.585.938;83.791;51.129;19.994;39.835;-227.564
125.605.469;95.391;47.466;12.668;38.004;-182.998
125.625.000;103.022;42.888;0.3205;31.899;-128.358
125.644.531;105.159;38.309;-0.5342;25.794;-73.718
125.664.063;99.969;34.646;-11.142;22.741;-39.225
125.683.594;91.422;32.204;-12.973;24.573;-33.730
125.703.125;85.317;32.509;-11.142;28.236;-31.288
125.722.656;82.570;34.646;-0.7784;30.983;-15.720
125.742.188;77.991;36.783;-0.5037;30.372;-0.9921
125.761.719;71.581;38.919;-0.2595;29.457;-32.204
125.781.250;66.392;41.361;0.1984;31.899;-68.529
125.800.781;63.950;45.330;0.9921;40.140;-88.370
125.820.313;64.255;50.214;19.383;53.571;-86.233
125.839.844;64.255;54.182;28.236;68.834;-76.770
125.859.375;60.592;55.403;33.730;80.433;-66.697
125.878.906;53.571;54.792;34.646;84.402;-67.613
125.898.438;45.024;52.350;30.372;80.128;-92.643
125.917.969;37.393;49.908;23.352;70.665;-122.558
125.937.500;33.425;49.298;16.026;58.150;-139.652
125.957.031;31.899;49.908;0.9005;41.056;-155.220
125.976.563;29.762;50.214;0.1679;20.299;-172.619
125.996.094;24.267;50.214;-0.3816;0.1374;-190.629
126.015.625;15.415;49.908;-0.6868;-11.752;-200.397
126.035.156;0.5342;49.603;-0.7173;-19.994;-193.987
126.054.688;-0.4426;48.382;-0.6258;-23.962;-188.187
126.074.219;-14.805;46.245;-0.4426;-25.488;-190.629
126.093.750;-26.709;43.498;-0.2289;-26.404;-172.619
126.113.281;-40.140;39.225;-0.0763;-27.015;-121.947
126.132.813;-52.961;33.425;-0.0153;-27.015;-63.950
126.152.344;-64.866;28.541;-0.0153;-26.099;-17.247
126.171.875;-72.802;23.962;-0.0153;-26.099;16.941
126.191.406;-74.023;19.078;-0.1374;-29.151;35.562
126.210.938;-68.834;14.499;-0.4426;-36.172;31.593
126.230.469;-59.066;11.142;-0.9615;-46.856;12.668
126.250.000;-47.772;0.9615;-15.415;-58.761;-0.1374
126.269.531;-39.225;11.447;-19.994;-68.223;-10.836
126.289.063;-40.446;15.415;-22.741;-72.497;-20.910
126.308.594;-50.519;19.078;-24.267;-70.971;-16.331
126.328.125;-62.729;21.520;-23.962;-63.950;0.7479
126.347.656;-71.886;24.267;-23.046;-53.266;22.436
126.367.188;-78.297;27.320;-21.825;-42.277;10.226
126.386.719;-80.739;30.678;-19.383;-31.899;-11.142
126.406.250;-77.686;34.646;-16.636;-20.910;-27.930
126.425.781;-71.276;38.919;-14.194;-0.9921;-39.225
126.445.313;-65.171;42.888;-11.752;-0.0458;-40.751
126.464.844;-60.897;46.551;-0.8700;0.6563;-29.151
126.484.375;-55.098;49.908;-0.3816;12.668;-10.226
126.503.906;-46.245;53.266;0.2289;19.078;0.5037
126.523.438;-37.088;56.319;0.8700;27.320;16.636
126.542.969;-32.814;57.540;12.668;35.562;24.878
126.562.500;-34.951;56.013;13.889;41.361;11.142
126.582.031;-41.056;53.266;12.363;44.109;-33.120
126.601.563;-47.161;50.214;0.8700;42.888;-94.475
126.621.094;-50.824;48.077;0.2289;38.309;-152.778
126.640.625;-50.519;46.245;-0.5342;29.762;-185.134
126.660.156;-45.024;44.719;-13.278;18.773;-188.492
126.679.688;-35.562;44.414;-19.689;0.7784;-190.018
126.699.219;-25.794;47.161;-26.404;-0.1679;-201.618
126.718.750;-15.110;51.129;-33.425;-12.057;-216.270
126.738.281;-0.2595;54.792;-40.751;-23.962;-221.154
126.757.813;0.6563;56.624;-46.551;-33.425;-198.260
126.777.344;0.8700;58.150;-49.298;-38.004;-160.104
126.796.875;0.5037;59.676;-48.993;-39.835;-136.600
126.816.406;-0.1679;60.897;-48.077;-40.751;-125.611
126.835.938;-0.8394;61.203;-47.466;-41.972;-112.790
126.855.469;-13.278;61.508;-46.551;-43.193;-94.475
126.875.000;-16.941;62.424;-45.330;-43.803;-76.160
126.894.531;-20.910;62.729;-44.109;-42.888;-71.276
126.914.063;-24.267;61.203;-43.803;-40.140;-72.497
126.933.594;-26.099;58.150;-43.193;-36.783;-65.171
126.953.125;-25.488;55.098;-41.972;-34.341;-48.077
126.972.656;-25.183;51.740;-40.446;-33.425;-21.215
126.992.188;-28.541;48.077;-38.614;-33.730;0.5037
127.011.719;-34.951;44.719;-36.172;-34.341;11.752
127.031.250;-41.056;42.277;-31.899;-33.120;-0.4426
127.050.781;-47.161;41.056;-27.015;-30.067;-29.762
127.070.313;-52.961;41.056;-23.046;-28.236;-54.182
127.089.844;-57.540;41.667;-20.299;-28.846;-77.076
127.109.375;-57.234;42.888;-17.552;-28.846;-99.969
127.128.906;-52.961;44.719;-14.805;-25.794;-117.979
127.148.438;-48.382;46.245;-10.836;-19.689;-114.621
127.167.969;-45.635;46.551;-0.5647;-11.447;-93.559
127.187.500;-44.414;46.245;0.0458;-0.3510;-86.844
127.207.031;-46.245;46.551;0.7479;0.2289;-101.496
127.226.563;-49.908;47.772;14.499;0.5952;-110.653
127.246.094;-52.961;49.298;19.383;0.8394;-106.380
127.265.625;-54.792;50.214;21.215;10.226;-103.938
127.285.156;-55.098;49.603;19.689;0.9921;-102.717
127.304.688;-53.266;49.298;16.026;0.7784;-82.265
127.324.219;-50.824;50.519;12.363;0.6563;-35.256
127.343.750;-50.519;51.435;0.8089;0.4121;21.215
