Time;Fp2-F4;F4-C4;C4-P4;P4-O2;C4-A1
175.781.250;278.236;24.878;38.309;-46.551;66.392
175.800.781;260.836;22.436;32.814;-51.740;78.907
175.820.313;236.722;25.183;29.151;-54.487;91.117
175.839.844;202.534;35.562;29.762;-52.350;107.295
175.859.375;161.325;50.214;34.341;-46.856;119.505
175.878.906;119.505;64.866;40.751;-40.751;131.105
175.898.438;83.486;77.991;47.772;-33.425;146.368
175.917.969;58.150;88.370;55.098;-23.046;146.062
175.937.500;51.435;94.780;61.203;-11.752;134.158
175.957.031;76.465;96.612;64.866;-0.3816;136.600
175.976.563;134.768;93.559;66.697;-0.0153;143.620
175.996.094;210.775;86.538;68.529;0.1679;135.073
176.015.625;270.910;77.381;69.750;0.4426;117.979
176.035.156;281.593;69.139;69.750;0.7173;101.190
176.054.688;254.731;64.560;70.971;10.836;86.233
176.074.219;217.186;62.729;73.718;13.584;77.991
176.093.750;171.398;63.034;76.160;13.278;78.602
176.113.281;123.168;64.866;77.991;10.226;86.844
176.132.813;82.265;67.613;78.907;0.5952;86.233
176.152.344;50.214;70.665;77.686;0.0153;72.497
176.171.875;24.878;73.718;73.413;-10.531;64.255
176.191.406;0.8089;77.076;67.613;-25.794;56.624
176.210.938;0.5952;79.518;62.729;-43.498;25.794
176.230.469;20.604;81.654;59.371;-61.203;-29.457
176.250.000;41.972;81.349;55.708;-78.907;-77.381
176.269.531;66.697;74.328;49.603;-96.917;-88.370
176.289.063;105.464;59.371;40.446;-111.569;-69.139
176.308.594;155.525;42.277;30.678;-121.337;-34.951
176.328.125;193.376;32.204;23.657;-128.053;0.4731
176.347.656;205.586;30.372;19.994;-132.631;36.172
176.367.188;197.344;32.814;19.383;-132.937;47.466
176.386.719;175.366;35.867;22.131;-129.579;33.120
176.406.250;159.188;34.951;25.183;-125.000;0.0153
176.425.781;161.630;29.457;26.099;-119.505;-37.088
176.445.313;158.883;24.878;25.488;-113.095;-67.918
176.464.844;126.832;27.625;25.183;-103.938;-80.433
176.484.375;73.718;36.783;27.625;-90.507;-77.686
176.503.906;21.215;46.245;32.204;-73.107;-97.527
176.523.438;0.3510;42.277;34.951;-56.319;-154.915
176.542.969;75.549;12.668;32.204;-45.330;-218.101
176.562.500;240.385;-34.646;24.267;-41.361;-267.247
176.582.031;385.073;-73.107;15.110;-43.193;-301.129
176.601.563;412.546;-84.402;0.8700;-48.382;-305.708
176.621.094;374.695;-74.023;0.6258;-53.266;-275.183
176.640.625;356.685;-56.929;0.5342;-56.013;-230.311
176.660.156;327.991;-38.004;0.4731;-56.624;-190.018
176.679.688;227.259;-17.247;0.3205;-56.624;-157.662
176.699.219;87.454;-0.0458;0.1068;-57.845;-123.474
176.718.750;0.0458;0.2900;-0.2900;-63.034;-92.643
176.738.281;-0.7173;-10.531;-11.447;-74.328;-77.686
176.757.813;-0.5342;-32.509;-23.046;-90.507;-75.549
176.777.344;-46.245;-46.245;-33.425;-106.685;-76.465
176.796.875;-118.284;-50.824;-40.751;-119.811;-82.265
176.816.406;-195.208;-52.656;-46.245;-130.800;-101.190
176.835.938;-238.248;-59.676;-50.519;-140.873;-141.484
176.855.469;-197.039;-80.128;-56.929;-149.115;-207.418
176.875.000;-62.729;-115.232;-66.697;-155.830;-275.794
176.894.531;81.960;-148.810;-75.855;-161.935;-320.665
176.914.063;121.947;-160.409;-79.212;-166.819;-345.696
176.933.594;32.814;-144.841;-75.549;-168.956;-344.170
176.953.125;-128.968;-114.011;-67.308;-169.261;-309.371
176.972.656;-305.403;-82.265;-56.319;-169.567;-257.173
176.992.188;-453.144;-59.066;-45.635;-172.009;-209.554
177.011.719;-536.477;-50.824;-38.309;-175.672;-183.303
177.031.250;-527.320;-60.287;-36.172;-176.893;-173.535
177.050.781;-435.134;-82.570;-37.088;-173.840;-170.177
177.070.313;-295.024;-105.464;-38.614;-165.293;-174.756
177.089.844;-157.051;-121.642;-38.004;-151.252;-188.187
177.109.375;-70.665;-131.410;-34.646;-133.242;-201.923
177.128.906;-36.783;-135.989;-30.372;-113.400;-206.197
177.148.438;-42.888;-130.800;-24.573;-93.864;-200.397
177.167.969;-91.422;-111.569;-15.110;-76.160;-185.440
177.187.500;-177.808;-82.875;-0.1679;-62.424;-163.462
177.207.031;-286.172;-50.519;11.752;-55.403;-150.336
177.226.563;-403.083;-19.078;22.131;-53.571;-165.598
177.246.094;-516.941;0.8394;28.846;-53.877;-214.133
177.265.625;-608.822;31.288;32.814;-56.319;-276.099
177.285.156;-665.598;46.551;33.730;-61.813;-315.781
177.304.688;-685.745;52.961;31.899;-70.971;-314.255
177.324.219;-672.924;51.129;27.625;-81.654;-288.919
177.343.750;-632.937;43.193;22.436;-92.338;-259.310
177.363.281;-571.886;29.457;16.331;-102.717;-222.680
177.382.813;-499.542;12.363;10.531;-109.127;-173.840
177.402.344;-429.335;-0.4426;0.5647;-109.127;-128.968
177.421.875;-371.337;-18.773;0.1679;-103.938;-117.674
177.441.406;-327.991;-30.983;-0.1679;-98.443;-138.126
177.460.938;-298.077;-40.751;-0.7173;-96.306;-154.304
177.480.469;-279.762;-46.245;-12.973;-98.138;-150.641
177.500.000;-270.910;-45.024;-17.552;-100.580;-143.926
177.519.531;-267.552;-38.919;-19.383;-101.496;-139.957
177.539.063;-262.668;-30.678;-20.299;-100.885;-130.495
177.558.594;-248.932;-23.046;-20.910;-100.275;-115.537
177.578.125;-224.817;-18.162;-20.299;-98.138;-89.286
177.597.656;-197.039;-15.720;-17.857;-93.864;-53.571
177.617.188;-177.503;-13.584;-13.889;-89.286;-22.741
177.636.719;-169.567;-0.9005;-0.8089;-85.012;-0.6258
177.656.250;-173.230;-0.2900;-0.2900;-82.875;-23.046
177.675.781;-184.524;0.4121;0.0153;-81.960;-65.781
177.695.313;-195.513;11.447;0.0458;-82.875;-82.875
177.714.844;-200.092;16.331;-0.1374;-87.759;-62.424
177.734.375;-195.208;17.552;-0.6563;-97.527;-41.361
177.753.906;-179.640;16.331;-13.889;-110.653;-43.193
177.773.438;-156.746;13.889;-23.046;-125.611;-65.476
177.792.969;-133.547;12.057;-32.814;-141.789;-101.190
177.812.500;-115.537;12.363;-40.751;-157.662;-142.399
177.832.031;-106.990;15.720;-46.245;-171.703;-180.861
177.851.563;-107.601;21.825;-48.382;-184.219;-210.775
177.871.094;-114.621;29.151;-46.856;-194.597;-236.722
177.890.625;-124.695;37.088;-42.888;-200.092;-258.394
177.910.156;-132.937;45.024;-36.477;-198.565;-258.089
177.929.688;-134.158;51.435;-28.541;-190.629;-230.617
177.949.219;-124.084;54.487;-20.604;-176.282;-190.934
177.968.750;-104.853;52.656;-14.194;-156.136;-158.883
177.988.281;-85.623;48.077;-0.8394;-131.716;-147.283
178.007.813;-74.328;42.888;-0.3510;-105.464;-157.357
178.027.344;-73.718;38.309;0.0153;-80.433;-180.556
178.046.875;-81.654;34.646;0.2595;-57.234;-206.502
178.066.406;-95.391;32.509;0.4426;-36.477;-222.985
178.085.938;-110.348;32.204;0.5342;-18.773;-221.154
178.105.469;-119.811;34.035;0.5952;-0.3816;-223.596
178.125.000;-121.032;37.698;0.5647;0.7784;-246.184
178.144.531;-114.927;41.667;0.3510;17.247;-270.604
178.164.063;-103.327;43.803;0.0458;25.183;-282.509
178.183.594;-90.507;43.193;-0.2595;30.067;-282.204
178.203.125;-80.739;39.225;-0.6563;28.541;-277.625
178.222.656;-73.107;32.509;-12.363;19.994;-263.889
178.242.188;-69.750;27.320;-19.078;0.9005;-231.838
178.261.719;-75.855;26.099;-26.099;-0.0458;-193.071
178.281.250;-93.559;27.930;-31.593;-0.8700;-155.830
178.300.781;-116.453;30.067;-34.646;-16.636;-131.716
178.320.313;-136.294;30.067;-37.088;-23.962;-141.789
178.339.844;-144.841;27.015;-38.309;-29.457;-164.683
178.359.375;-139.347;21.215;-38.004;-30.067;-169.567
178.378.906;-126.526;12.973;-37.088;-28.846;-164.377
178.398.438;-112.179;0.3816;-37.698;-30.678;-162.241
178.417.969;-99.969;-0.3816;-39.530;-34.646;-164.988
178.437.500;-94.170;-0.5952;-40.140;-35.256;-169.567
178.457.031;-96.917;-0.3510;-39.530;-31.593;-161.935
178.476.563;-108.516;0.0153;-39.530;-25.488;-130.495
178.496.094;-127.137;0.3510;-40.140;-18.162;-82.570
178.515.625;-137.821;0.5952;-40.751;-0.9310;-36.172
178.535.156;-130.495;0.4121;-41.361;0.1068;-12.057
178.554.688;-117.674;-0.1068;-41.972;12.057;-17.247
178.574.219;-110.043;-0.7784;-43.498;19.994;-40.751
178.593.750;-104.243;-16.026;-47.161;21.215;-57.845
178.613.281;-100.275;-23.657;-51.435;19.383;-49.603
178.632.813;-106.074;-27.320;-53.877;14.805;-18.773
178.652.344;-125.916;-27.015;-52.350;0.4121;23.352
178.671.875;-156.136;-22.741;-47.466;-12.057;56.624
178.691.406;-179.029;-16.331;-39.530;-29.151;59.676
178.710.938;-179.029;-10.836;-30.372;-43.193;34.341
178.730.469;-170.177;-0.5342;-21.520;-52.350;-0.0458
178.750.000;-177.503;0.1984;-13.278;-55.098;-26.099
178.769.531;-197.650;0.9921;-0.6563;-52.350;-31.593
178.789.063;-212.607;13.889;-0.1374;-46.245;-25.488
178.808.594;-210.775;11.447;0.1984;-37.698;-13.584
178.828.125;-196.123;0.3510;0.5952;-26.709;11.752
178.847.656;-185.440;-0.5037;10.531;-16.941;43.803
178.867.188;-181.471;-0.9615;14.805;-0.9921;56.929
178.886.719;-159.493;-12.668;16.941;-0.4731;39.225
178.906.250;-108.516;-21.520;15.110;-0.3205;0.8089
178.925.781;-63.950;-34.341;0.9615;-0.5647;-17.247
178.945.313;-56.929;-42.277;0.5647;-0.7784;-48.382
178.964.844;-77.686;-40.140;0.5342;-0.7173;-105.769
178.984.375;-90.507;-32.509;0.6868;-0.5037;-169.567
179.003.906;-75.855;-25.488;0.7479;-0.1984;-195.513
179.023.438;-62.118;-20.910;0.6868;0.0763;-182.692
179.042.969;-82.265;-15.110;0.7173;0.2595;-151.252
179.062.500;-134.768;-0.5647;0.8089;0.3510;-104.853
179.082.031;-198.260;0.7173;0.9615;0.6563;-48.993
179.101.563;-250.458;21.520;11.752;12.973;-0.4426
179.121.094;-283.425;34.951;13.584;20.299;18.162
179.140.625;-300.519;44.719;14.499;25.794;19.383
179.160.156;-303.877;51.129;14.194;27.625;0.8700
179.179.688;-297.161;54.182;12.057;25.183;-0.5647
179.199.219;-284.951;53.571;0.8700;19.383;-28.541
179.218.750;-268.468;47.161;0.4121;11.752;-57.234
179.238.281;-247.711;35.562;-0.1679;0.4121;-71.581
179.257.813;-226.038;23.352;-0.7173;-0.1679;-58.761
179.277.344;-207.112;14.194;-0.9005;-0.2289;-21.825
179.296.875;-189.103;0.7479;-0.4731;0.7173;25.488
179.316.406;-168.651;0.3205;0.3510;24.573;70.055
179.335.938;-141.178;-0.1068;0.9615;35.256;107.295
179.355.469;-117.369;-0.8089;0.9310;29.457;138.126
179.375.000;-117.369;-15.415;0.3816;10.226;156.441
179.394.531;-139.652;-19.994;-0.2595;-13.584;159.188
179.414.063;-170.177;-21.215;-0.8089;-37.088;153.999
179.433.594;-200.092;-19.994;-10.836;-55.708;155.220
179.453.125;-224.817;-15.110;-12.057;-66.392;164.683
179.472.656;-240.385;-0.9615;-13.584;-72.802;158.272
179.492.188;-248.016;-0.5037;-16.331;-78.602;122.558
179.511.719;-252.289;-0.1374;-19.383;-85.623;76.770
179.531.250;-254.731;0.2289;-22.436;-91.728;18.162
179.550.781;-253.205;0.7479;-24.267;-93.559;-66.087
179.570.313;-246.795;14.194;-23.046;-89.591;-148.199
179.589.844;-234.890;21.520;-17.857;-80.739;-197.039
179.609.375;-212.302;26.099;-11.447;-71.581;-210.775
179.628.906;-169.261;22.436;-0.7173;-67.308;-209.249
179.648.438;-102.106;0.9005;-0.6868;-67.002;-205.281
179.667.969;-24.267;-0.8089;-0.9921;-69.139;-191.850
179.687.500;34.035;-21.825;-14.805;-72.802;-173.840
179.707.031;50.214;-28.541;-18.773;-77.991;-158.883
179.726.563;23.657;-26.709;-19.383;-81.654;-137.210
179.746.094;-26.709;-17.247;-17.247;-79.212;-102.717
179.765.625;-76.465;-0.3205;-14.194;-70.055;-60.592
179.785.156;-112.179;0.9921;-10.531;-56.319;-16.636
179.804.688;-134.768;19.383;-0.7479;-43.193;15.720
179.824.219;-151.252;27.625;-0.5342;-30.983;22.741
179.843.750;-165.904;35.562;-0.3816;-19.689;0.8089
179.863.281;-175.977;43.193;-0.1679;-12.057;-13.278
179.882.813;-176.587;47.466;0.0763;-0.8089;-38.309
179.902.344;-166.209;47.466;0.3205;-0.7479;-60.592
179.921.875;-150.336;44.719;0.5037;-0.8089;-66.087
179.941.406;-132.021;43.193;0.6563;-0.9005;-61.813
179.960.938;-110.653;45.635;0.9310;-0.9005;-64.255
179.980.469;-82.570;52.961;14.805;-0.5342;-76.770
180.000.000;-51.740;62.424;21.520;0.0458;-95.085
180.019.531;-31.593;68.223;26.709;0.6258;-116.758
180.039.063;-28.846;67.613;29.151;10.836;-146.062
180.058.594;-29.457;61.203;28.846;15.720;-189.713
180.078.125;-29.457;51.129;27.625;22.741;-244.658
180.097.656;-46.245;40.446;27.625;31.593;-306.929
180.117.188;-79.212;30.983;25.794;35.256;-378.663
180.136.719;-108.211;20.910;20.910;27.930;-435.440
180.156.250;-122.863;0.9615;14.194;11.447;-432.387
180.175.781;-129.884;-0.0458;0.8089;-0.7479;-375.916
180.195.313;-140.873;-0.8089;0.3816;-24.267;-316.392
180.214.844;-159.799;-13.584;0.0763;-35.867;-268.468
180.234.375;-185.134;-18.162;-0.0153;-39.530;-214.133
180.253.906;-212.607;-21.825;0.0153;-35.256;-146.368
180.273.438;-237.027;-24.878;0.1374;-27.320;-75.244
180.292.969;-254.426;-27.625;0.2289;-21.825;-14.805
180.312.500;-265.720;-30.067;0.2289;-19.994;29.457
180.332.031;-271.825;-33.120;0.1679;-18.468;59.066
180.351.563;-271.825;-38.614;0.1068;-18.468;70.360
180.371.094;-261.752;-45.940;0.0153;-19.994;59.371
180.390.625;-233.974;-54.487;-0.0763;-21.520;36.172
180.410.156;-186.661;-62.118;-0.1068;-22.436;17.247
180.429.688;-140.873;-63.950;0.0763;-20.604;0.6868
180.449.219;-125.916;-58.150;0.5342;-16.941;-0.6258
180.468.750;-142.705;-49.298;0.9921;-14.194;-44.719
180.488.281;-171.398;-41.056;13.584;-13.889;-112.790
180.507.813;-197.039;-35.562;14.499;-15.720;-188.492
180.527.344;-216.575;-33.425;13.889;-19.383;-243.437
180.546.875;-231.532;-34.951;13.278;-22.131;-258.700
180.566.406;-241.911;-38.309;12.363;-22.741;-231.532
180.585.938;-250.153;-42.888;10.836;-20.910;-175.977
180.605.469;-257.784;-48.382;0.9921;-16.331;-107.601
180.625.000;-262.973;-53.266;0.9615;-0.9005;-40.140
180.644.531;-262.668;-57.234;0.8700;-0.1679;0.9921
180.664.063;-255.037;-59.371;0.6563;0.3816;38.004
180.683.594;-237.943;-59.676;0.4426;0.7173;47.466
180.703.125;-213.523;-59.066;0.2289;0.9005;33.425
180.722.656;-188.797;-59.066;0.0153;0.9921;-0.3510
180.742.188;-172.009;-59.371;-0.1068;10.226;-49.603
180.761.719;-165.293;-58.455;-0.1984;10.531;-91.422
180.781.250;-167.125;-55.098;-0.2289;12.057;-121.642
180.800.781;-171.093;-51.740;-0.2289;15.110;-150.031
180.820.313;-171.703;-50.214;-0.1984;18.162;-182.998
180.839.844;-172.619;-48.993;-0.0763;18.773;-212.302
180.859.375;-175.366;-47.466;0.0153;17.857;-225.733
180.878.906;-177.198;-45.940;-0.0763;13.889;-222.985
180.898.438;-176.893;-45.330;-0.4426;0.6258;-213.828
180.917.969;-174.451;-44.109;-0.8700;-0.3816;-197.344
180.937.500;-172.314;-43.193;-12.057;-15.720;-178.114
180.957.031;-172.619;-42.277;-13.889;-27.930;-169.567
180.976.563;-173.535;-42.277;-12.973;-38.004;-170.788
180.996.094;-172.314;-43.498;-0.9005;-44.414;-180.250
181.015.625;-171.398;-45.330;-0.2900;-47.466;-204.976
181.035.156;-171.398;-46.856;0.4426;-46.551;-242.521
181.054.688;-169.872;-48.077;12.057;-43.498;-277.015
181.074.219;-166.209;-48.382;18.773;-39.530;-289.530
181.093.750;-163.462;-48.993;24.573;-35.562;-267.247
181.113.281;-164.683;-49.908;28.541;-31.593;-213.523
181.132.813;-169.567;-51.129;31.288;-26.404;-150.946
181.152.344;-173.840;-51.740;31.593;-20.604;-103.632
181.171.875;-175.672;-52.045;29.457;-14.805;-67.308
181.191.406;-175.672;-53.877;26.099;-0.9615;-42.277
181.210.938;-174.451;-56.013;21.520;-0.4731;-47.161
181.230.469;-175.977;-56.319;16.941;0.0153;-70.971
181.250.000;-181.777;-55.098;13.889;0.7173;-75.549
181.269.531;-189.408;-53.877;12.973;18.773;-44.109
181.289.063;-197.039;-53.571;15.415;33.120;0.4731
181.308.594;-205.891;-54.792;20.299;45.024;41.056
181.328.125;-219.017;-57.540;25.488;52.656;49.298
181.347.656;-232.143;-61.813;30.678;56.929;31.288
181.367.188;-244.353;-67.308;33.730;57.540;-0.9921
181.386.719;-260.531;-72.192;34.646;54.487;-60.592
181.406.250;-280.678;-75.855;32.814;48.382;-81.044
181.425.781;-303.266;-78.602;27.320;38.614;-55.403
181.445.313;-315.476;-81.044;19.078;25.488;-11.447
181.464.844;-291.056;-86.538;0.9615;12.363;15.720
181.484.375;-238.858;-98.138;0.0153;0.1068;13.584
181.503.906;-210.165;-111.569;-11.142;-0.8394;0.9005
181.523.438;-218.407;-120.421;-22.741;-17.552;18.162
181.542.969;-230.006;-122.558;-31.288;-23.962;23.352
181.562.500;-234.280;-121.947;-35.562;-26.709;0.6258
181.582.031;-245.574;-124.695;-38.614;-27.015;-45.024
181.601.563;-264.194;-137.515;-43.498;-27.625;-103.938
181.621.094;-267.552;-162.851;-52.656;-30.372;-135.073
181.640.625;-235.195;-199.176;-64.866;-33.120;-148.504
181.660.156;-196.429;-236.416;-76.160;-33.120;-162.546
181.679.688;-208.639;-261.447;-84.096;-30.678;-170.788
181.699.219;-282.814;-266.331;-87.149;-29.151;-172.009
181.718.750;-386.905;-252.900;-86.233;-28.236;-172.314
181.738.281;-481.227;-233.059;-82.875;-23.657;-162.546
181.757.813;-532.814;-218.712;-79.212;-15.110;-138.736
181.777.344;-519.689;-216.270;-77.381;-0.6258;-114.316
181.796.875;-448.565;-222.375;-78.907;-0.3816;-100.580
181.816.406;-370.116;-227.564;-81.349;-0.9005;-104.243
181.835.938;-353.022;-222.985;-82.875;-21.520;-124.084
181.855.469;-404.915;-210.470;-84.096;-40.446;-155.830
181.875.000;-457.723;-203.755;-85.928;-64.560;-198.260
181.894.531;-434.829;-214.438;-91.728;-90.201;-248.016
181.914.063;-280.372;-247.711;-104.548;-113.706;-304.792
181.933.594;-27.320;-298.077;-121.947;-132.937;-347.833
181.953.125;175.977;-342.033;-135.989;-144.536;-349.664
181.972.656;221.764;-351.190;-139.652;-146.062;-319.139
181.992.188;118.895;-321.581;-132.937;-137.515;-277.930
182.011.719;-67.002;-272.131;-120.116;-123.168;-230.006
182.031.250;-238.858;-225.122;-106.685;-106.990;-175.977
182.050.781;-315.476;-193.071;-96.001;-91.117;-131.716
182.070.313;-315.781;-176.587;-88.370;-76.160;-106.685
182.089.844;-306.013;-171.093;-83.486;-63.950;-96.917
182.109.375;-312.118;-168.651;-79.518;-53.571;-98.138
182.128.906;-340.812;-158.883;-73.413;-42.582;-112.485
182.148.438;-381.105;-139.652;-63.645;-30.372;-130.189
182.167.969;-409.188;-118.590;-52.045;-18.162;-137.821
182.187.500;-398.199;-110.653;-43.803;-0.8394;-152.778
182.207.031;-330.128;-120.116;-41.972;-0.2289;-180.861
182.226.563;-220.238;-135.989;-43.803;0.0153;-194.902
182.246.094;-101.190;-144.231;-45.330;0.0763;-182.998
182.265.625;-32.204;-134.768;-43.193;0.1679;-151.557
182.285.156;-52.045;-107.601;-35.867;0.4426;-113.095
182.304.688;-121.642;-74.023;-26.404;0.8089;-71.886
182.324.219;-180.556;-46.551;-19.078;10.226;-30.372
182.343.750;-208.333;-33.730;-16.331;0.9921;-0.0153
182.363.281;-218.101;-34.646;-16.941;0.6868;19.994
182.382.813;-221.154;-42.582;-18.773;0.1374;32.509
182.402.344;-207.418;-53.266;-19.078;-0.4731;24.573
182.421.875;-169.261;-64.560;-16.636;-10.531;0.1374
182.441.406;-118.284;-74.023;-12.363;-15.110;-18.773
182.460.938;-78.297;-80.128;-0.9615;-20.910;-25.488
182.480.469;-64.255;-83.181;-0.9921;-29.762;-0.5342
182.500.000;-68.834;-83.181;-12.363;-41.972;39.835
182.519.531;-75.549;-82.875;-16.331;-56.013;87.149
182.539.063;-68.529;-85.012;-20.604;-70.360;117.979
182.558.594;-41.361;-91.117;-24.878;-84.096;132.021
182.578.125;-0.5952;-96.306;-27.930;-94.780;134.463
182.597.656;19.078;-95.085;-27.930;-100.885;123.779
182.617.188;29.457;-87.759;-24.878;-102.106;93.864
182.636.719;33.425;-77.381;-19.689;-97.833;48.993
182.656.250;37.393;-67.613;-12.668;-88.065;-19.383
182.675.781;44.414;-60.287;-0.5037;-75.855;-121.642
182.695.313;55.098;-56.624;0.0763;-63.645;-201.618
182.714.844;69.750;-56.319;0.5647;-50.824;-191.545
182.734.375;89.896;-59.371;0.9921;-36.783;-102.106
182.753.906;112.790;-65.781;13.278;-22.741;15.110
182.773.438;131.105;-72.802;14.499;-0.9310;120.421
182.792.969;146.978;-79.823;14.805;0.1374;193.376
182.812.500;168.346;-87.454;15.110;0.5952;234.585
182.832.031;191.850;-92.643;16.026;0.4731;248.321
182.851.563;204.670;-92.338;18.162;0.1374;243.132
182.871.094;202.534;-85.623;20.604;-0.1984;231.838
182.890.625;191.545;-74.023;22.131;-0.7479;214.133
182.910.156;176.282;-61.203;22.131;-17.552;176.893
182.929.688;160.714;-49.603;21.520;-32.814;112.790
182.949.219;147.283;-39.530;19.994;-49.603;23.352
182.968.750;134.158;-29.762;17.552;-64.255;-79.518
182.988.281;127.442;-21.215;14.194;-76.770;-174.145
183.007.813;139.347;-15.110;12.363;-87.149;-234.890
183.027.344;163.767;-12.057;11.447;-94.475;-259.615
183.046.875;180.556;-11.752;11.447;-98.138;-268.162
183.066.406;191.545;-11.447;13.889;-98.138;-268.468
183.085.938;211.386;-10.226;20.299;-93.254;-253.510
183.105.469;228.785;-0.8394;29.762;-82.570;-225.122
183.125.000;227.869;-0.6563;38.919;-68.223;-192.766
183.144.531;215.354;-0.5647;45.940;-53.571;-156.136
183.164.063;201.007;-0.4426;50.214;-39.835;-113.095
183.183.594;183.608;-0.1679;52.350;-26.709;-67.308
183.203.125;161.325;0.2900;55.098;-13.584;-37.393
183.222.656;137.515;0.9615;59.676;-0.0763;-35.562
183.242.188;118.895;16.026;64.866;0.9615;-29.762
183.261.719;108.211;22.436;68.834;18.468;11.752
183.281.250;105.464;27.930;72.192;27.320;70.055
183.300.781;108.211;32.204;74.023;35.562;116.148
183.320.313;112.790;35.562;74.023;39.530;137.515
183.339.844;118.590;38.919;72.802;38.309;133.242
183.359.375;124.084;42.888;72.497;35.256;115.232
183.378.906;126.832;47.772;72.802;31.899;82.570
183.398.438;125.611;53.877;74.634;28.846;36.477
183.417.969;122.558;59.982;76.160;26.709;0.8700
183.437.500;124.084;65.476;75.855;25.183;0.4731
183.457.031;133.852;69.750;73.107;24.878;0.0458
183.476.563;149.115;72.802;69.444;26.099;0.7479
183.496.094;164.988;74.939;65.171;27.015;31.288
183.515.625;179.335;74.328;61.813;25.794;33.425
183.535.156;189.713;69.444;60.592;22.436;0.5647
183.554.688;196.429;60.897;62.118;18.162;0.0153
183.574.219;203.755;51.435;65.476;12.973;40.751
183.593.750;214.438;43.193;69.444;0.7173;93.559
183.613.281;222.680;38.309;73.107;0.0763;129.274
183.632.813;218.101;36.477;74.634;-0.5647;158.272
183.652.344;197.344;36.477;73.718;-11.447;194.597
183.671.875;168.956;38.004;70.665;-13.889;223.901
183.691.406;143.926;39.530;63.950;-13.584;229.090
183.710.938;129.579;41.972;52.656;-13.584;211.691
183.730.469;125.305;47.161;39.835;-14.499;175.977
183.750.000;125.305;54.487;30.067;-15.720;129.274
183.769.531;126.526;62.118;27.015;-17.552;83.486
183.789.063;128.663;68.223;28.846;-18.773;52.961
183.808.594;129.274;73.107;33.425;-17.247;36.477
183.828.125;124.695;76.465;39.225;-14.499;0.7784
183.847.656;115.842;77.381;45.940;-13.278;-21.520
183.867.188;109.432;75.244;52.350;-15.415;-12.057
183.886.719;109.737;70.665;58.455;-20.299;30.678
183.906.250;114.621;65.171;65.171;-24.267;75.855
183.925.781;123.779;59.982;71.276;-26.099;117.369
183.945.313;133.242;55.403;75.855;-27.320;156.136
183.964.844;134.463;52.350;79.212;-28.541;182.692
183.984.375;126.221;52.045;81.654;-27.930;187.576
184.003.906;115.232;52.045;81.654;-25.488;178.419
184.023.438;104.853;51.740;79.212;-23.046;167.735
184.042.969;97.833;50.214;74.634;-21.215;161.020
184.062.500;95.391;47.772;68.223;-23.352;146.062
184.082.031;92.643;45.024;59.982;-31.593;113.706
184.101.563;88.370;42.582;51.435;-45.635;79.518
184.121.094;85.317;40.446;44.414;-61.203;59.371
184.140.625;82.570;38.309;38.919;-74.939;54.487
184.160.156;80.128;36.477;33.730;-84.707;56.319
184.179.688;78.297;35.256;28.541;-86.844;52.961
184.199.219;76.770;34.341;24.267;-80.128;45.024
184.218.750;75.855;32.814;22.436;-65.476;42.888
184.238.281;78.602;30.372;23.657;-46.245;47.161
184.257.813;101.496;24.878;28.236;-25.794;49.298
184.277.344;169.261;13.889;34.646;-0.5342;35.867
184.296.875;255.952;-0.0153;41.667;16.636;12.668
184.316.406;296.245;-0.9310;49.298;41.667;0.7479
184.335.938;276.099;-0.8089;57.540;67.002;30.372
184.355.469;226.648;0.0153;64.560;86.538;66.392
184.375.000;173.840;0.9005;67.918;94.475;99.359
184.394.531;126.832;16.331;67.308;91.422;125.611
184.414.063;85.623;21.215;63.950;81.349;148.504
184.433.594;50.519;23.962;59.066;68.223;153.999
184.453.125;35.867;25.488;53.877;54.792;132.631
184.472.656;53.571;25.488;48.382;41.361;125.611
184.492.188;70.665;25.794;43.803;29.457;162.241
184.511.719;54.487;28.846;40.751;19.994;209.249
184.531.250;33.425;31.288;39.530;14.499;237.332
184.550.781;48.687;26.709;38.004;11.752;259.005
184.570.313;112.790;11.752;34.646;10.226;275.183
184.589.844;211.691;-10.531;29.762;0.8394;265.110
184.609.375;298.993;-34.646;23.657;0.5037;226.343
184.628.906;328.907;-50.214;18.773;0.1984;172.009
184.648.438;304.182;-52.045;17.552;0.1679;110.348
184.667.969;276.099;-46.856;18.162;0.2900;44.109
184.687.500;284.035;-41.972;18.773;0.3205;-38.919
184.707.031;297.161;-36.477;19.689;0.3205;-144.231
184.726.563;266.331;-24.878;21.215;0.3816;-236.111
184.746.094;189.408;-0.3816;23.352;0.4426;-285.562
184.765.625;91.728;22.131;25.183;0.3510;-310.287
184.785.156;-0.2289;45.635;23.962;-0.1374;-328.297
184.804.688;-79.212;62.729;19.994;-10.226;-317.002
184.824.219;-133.852;73.718;15.415;-21.825;-255.342
184.843.750;-168.040;78.907;11.752;-35.562;-165.293
184.863.281;-184.524;78.907;0.8089;-48.993;-70.665
184.882.813;-182.387;74.023;0.4426;-58.455;0.9921
184.902.344;-158.272;64.255;0.0153;-63.339;48.077
184.921.875;-115.537;49.298;-0.5952;-67.002;45.635
184.941.406;-64.255;30.067;-13.584;-70.055;31.899
184.960.938;-13.278;0.9005;-20.299;-68.834;16.026
184.980.469;30.678;-0.9615;-25.183;-62.729;14.499
185.000.000;61.813;-23.352;-28.541;-53.877;52.656
185.019.531;80.433;-31.288;-31.288;-44.109;114.011
185.039.063;87.149;-32.814;-31.899;-33.425;163.767
185.058.594;74.634;-28.236;-29.762;-22.131;188.492
185.078.125;44.719;-19.689;-25.488;-0.9921;189.713
185.097.656;12.057;-11.447;-19.383;0.0763;177.503
185.117.188;-13.278;-0.4731;-13.278;0.9005;159.493
185.136.719;-26.404;-0.0763;-0.8089;14.805;127.442
185.156.250;-26.099;0.0458;-0.3510;18.162;76.160
185.175.781;-16.941;0.0153;-0.1068;18.773;25.183
185.195.313;-0.6563;-0.1374;-0.1984;15.415;-12.057
185.214.844;-0.0458;-0.3510;-0.4426;10.226;-46.551
185.234.375;-0.0458;-0.4731;-0.6563;0.5342;-73.413
185.253.906;0.2595;-0.5952;-0.8089;0.3816;-93.254
185.273.438;29.457;-0.9615;-0.9921;0.4426;-108.211
185.292.969;71.276;-15.720;-13.584;0.5037;-99.054
185.312.500;88.675;-21.520;-17.857;0.5647;-74.023
185.332.031;74.634;-23.657;-21.520;0.7784;-61.813
185.351.563;51.435;-21.215;-23.962;0.9005;-71.581
185.371.094;30.372;-16.331;-26.709;0.7479;-82.570
185.390.625;11.752;-11.142;-29.151;0.4426;-75.549
185.410.156;-0.3816;-0.5647;-30.067;0.1374;-72.192
185.429.688;-15.415;-0.0458;-29.762;-0.2289;-83.486
185.449.219;-23.657;0.1068;-30.067;-0.8700;-103.327
185.468.750;-30.678;0.0153;-30.067;-16.941;-151.252
185.488.281;-38.309;0.0153;-28.236;-25.488;-216.270
185.507.813;-45.024;0.0458;-25.794;-34.646;-243.742
185.527.344;-45.635;0.1374;-22.436;-43.498;-220.849
185.546.875;-37.393;0.2900;-18.468;-50.519;-173.840
185.566.406;-20.910;0.4121;-14.499;-56.013;-127.747
185.585.938;-0.0153;0.3816;-12.057;-59.982;-106.380
185.605.469;13.889;0.2900;-10.836;-60.592;-113.706
185.625.000;13.584;0.2595;-11.447;-59.371;-107.601
185.644.531;0.0763;0.1374;-13.889;-59.066;-62.424
185.664.063;-17.857;-0.1374;-18.773;-59.982;-0.9615
185.683.594;-38.614;-0.6258;-25.488;-60.897;26.099
185.703.125;-57.540;-12.363;-32.204;-61.203;39.225
185.722.656;-70.971;-19.383;-38.309;-61.203;27.625
185.742.188;-76.465;-27.930;-44.414;-60.287;0.2289
185.761.719;-70.665;-41.056;-51.740;-56.929;-28.846
185.781.250;-54.792;-57.234;-59.066;-50.214;-56.013
185.800.781;-35.562;-73.107;-62.424;-40.446;-66.392
185.820.313;-10.836;-86.538;-60.897;-29.151;-66.392
185.839.844;52.961;-96.612;-55.403;-18.773;-73.107
185.859.375;162.546;-106.990;-49.908;-10.531;-94.475
185.878.906;241.911;-115.537;-46.245;-0.4426;-121.642
185.898.438;230.311;-112.485;-42.888;-0.0153;-152.778
185.917.969;146.673;-95.085;-38.919;0.3205;-168.956
185.937.500;36.477;-71.581;-34.646;0.5037;-144.231
185.957.031;-69.139;-50.214;-31.288;0.2595;-97.222
185.976.563;-148.810;-34.646;-27.625;-0.2900;-56.013
185.996.094;-169.872;-25.794;-24.573;-0.7479;-44.719
186.015.625;-129.884;-25.183;-23.352;-11.142;-72.802
186.035.156;-99.054;-29.151;-23.657;-14.805;-92.643
186.054.688;-120.726;-31.593;-23.962;-18.468;-85.012
186.074.219;-158.578;-33.730;-23.962;-21.825;-90.201
186.093.750;-170.482;-39.530;-24.267;-26.099;-103.938
186.113.281;-144.536;-49.908;-25.488;-30.372;-94.780
186.132.813;-106.990;-60.287;-25.488;-31.288;-73.718
186.152.344;-100.885;-63.950;-24.267;-29.457;-59.676
186.171.875;-128.968;-60.592;-21.825;-27.930;-49.908
186.191.406;-169.261;-55.098;-19.994;-27.625;-48.993
186.210.938;-209.249;-51.129;-20.910;-29.762;-67.308
186.230.469;-240.995;-49.298;-24.878;-37.393;-92.949
186.250.000;-261.447;-50.214;-31.899;-50.519;-116.758
186.269.531;-271.825;-52.656;-39.225;-66.087;-154.915
186.289.063;-273.352;-54.792;-44.414;-80.128;-214.133
186.308.594;-265.415;-57.845;-48.993;-92.033;-274.573
186.328.125;-241.606;-62.729;-52.656;-103.632;-324.328
186.347.656;-198.260;-69.750;-55.403;-114.621;-362.485
186.367.188;-143.010;-76.770;-56.624;-123.474;-363.400
186.386.719;-93.559;-80.433;-57.234;-128.663;-320.971
186.406.250;-65.476;-78.297;-59.066;-132.021;-270.604
186.425.781;-60.897;-71.886;-63.645;-135.379;-236.111
186.445.313;-67.918;-65.781;-71.581;-137.515;-249.237
186.464.844;-64.866;-66.087;-82.265;-135.684;-302.656
186.484.375;-34.035;-76.160;-94.780;-130.189;-336.538
186.503.906;15.415;-91.728;-105.159;-122.253;-327.686
186.523.438;53.571;-103.938;-110.653;-114.316;-284.951
186.542.969;63.950;-107.295;-110.653;-105.159;-236.416
186.562.500;52.656;-100.885;-106.685;-94.475;-193.987
186.582.031;28.541;-89.591;-100.580;-84.707;-131.410
186.601.563;-0.1984;-76.160;-92.949;-78.602;-54.792
186.621.094;-34.951;-60.592;-84.096;-76.465;11.447
186.640.625;-66.392;-43.803;-74.023;-75.855;62.424
186.660.156;-90.812;-26.099;-63.645;-76.465;97.222
186.679.688;-102.717;-0.9310;-52.656;-77.686;126.221
186.699.219;-96.001;0.4121;-40.446;-78.297;161.020
186.718.750;-65.476;13.278;-29.457;-78.907;188.797
186.738.281;-17.552;17.857;-21.520;-80.739;179.029
186.757.813;28.541;19.689;-17.247;-82.265;119.505
186.777.344;59.982;20.299;-14.194;-83.181;38.309
186.796.875;77.381;19.383;-12.057;-82.875;-19.994
186.816.406;85.317;16.026;-10.226;-80.739;-48.687
186.835.938;83.791;10.531;-0.9615;-75.855;-75.549
186.855.469;69.750;0.5952;-10.531;-68.529;-114.316
186.875.000;47.466;0.3205;-10.836;-58.761;-167.735
186.894.531;26.709;0.2900;-0.9310;-46.245;-229.701
186.914.063;15.720;0.3816;-0.6868;-30.678;-274.267
186.933.594;16.636;0.5952;-0.2289;-12.668;-290.140
186.953.125;27.015;0.7479;0.2595;0.4426;-302.350
186.972.656;40.751;0.7479;0.7173;17.247;-343.559
186.992.188;54.182;0.6563;0.9921;25.488;-406.136
187.011.719;64.866;0.6258;10.836;33.425;-444.902
187.031.250;70.971;0.7479;10.531;39.225;-426.893
187.050.781;71.276;0.9615;0.9615;39.835;-368.284
187.070.313;68.529;12.363;0.8700;35.562;-300.214
187.089.844;65.171;14.499;0.8089;29.457;-230.617
187.109.375;63.950;16.636;0.7479;23.657;-168.956
187.128.906;66.392;18.162;0.6868;18.468;-130.800
187.148.438;72.802;16.636;0.6258;13.278;-114.927
187.167.969;80.739;12.363;0.5952;0.7784;-117.063
187.187.500;88.065;0.7784;0.5952;0.1068;-129.274
187.207.031;95.085;0.4426;0.7479;-0.7479;-137.210
187.226.563;99.664;0.1679;0.9921;-17.247;-146.368
187.246.094;99.054;-0.0153;11.447;-25.794;-160.714
187.265.625;95.696;-0.1984;12.973;-30.983;-169.872
187.285.156;94.780;-0.4426;14.499;-34.035;-173.535
187.304.688;97.527;-0.7784;15.110;-34.646;-179.945
187.324.219;103.632;-11.447;13.584;-31.899;-198.871
187.343.750;110.958;-14.499;0.9921;-27.320;-226.343
187.363.281;118.895;-16.941;0.4731;-23.046;-241.606
187.382.813;125.611;-19.078;0.0153;-19.689;-237.943
187.402.344;128.358;-20.299;-0.1679;-13.584;-215.659
187.421.875;123.168;-19.383;0.0458;-0.1679;-170.788
187.441.406;110.348;-15.415;0.7784;16.636;-121.032
187.460.938;94.170;-0.9310;19.078;41.056;-82.265
187.480.469;77.381;-0.1984;32.509;68.529;-48.687
187.500.000;63.034;0.4426;44.414;94.475;-26.404
187.519.531;52.961;10.531;53.571;116.758;-27.930
187.539.063;49.298;13.889;59.066;136.294;-38.614
187.558.594;52.656;14.194;59.066;151.557;-46.551
187.578.125;60.897;12.363;52.350;158.883;-66.087
187.597.656;69.750;10.226;40.446;157.967;-87.759
187.617.188;75.549;0.8394;27.320;151.862;-92.338
187.636.719;75.244;0.7479;15.415;144.841;-96.612
187.656.250;69.750;0.5647;0.6868;137.821;-113.706
187.675.781;62.118;0.2289;0.4426;131.716;-125.305
187.695.313;55.403;-0.1068;0.6868;127.137;-120.421
187.714.844;48.993;-0.5037;11.142;125.305;-105.159
187.734.375;43.193;-0.9310;16.026;125.611;-87.759
187.753.906;36.477;-14.499;19.383;123.168;-71.276
187.773.438;27.625;-21.215;19.383;115.537;-45.024
187.792.969;16.331;-29.457;16.941;104.548;-0.8700
187.812.500;0.3205;-36.477;14.194;93.254;30.983
187.832.031;-11.447;-40.751;11.752;82.875;70.665
187.851.563;-29.151;-42.888;0.7173;72.192;90.507
187.871.094;-49.908;-43.498;0.0763;60.592;79.823
187.890.625;-70.665;-43.193;-0.6258;48.382;46.551
187.910.156;-87.454;-41.361;-12.363;34.951;0.1374
187.929.688;-95.391;-38.919;-16.331;21.520;-26.404
187.949.219;-93.559;-35.867;-18.162;11.142;-12.363
187.968.750;-90.812;-34.341;-19.689;0.2595;14.499
187.988.281;-97.527;-36.783;-21.215;-0.4731;26.404
188.007.813;-114.927;-43.803;-21.215;-10.226;42.277
188.027.344;-137.515;-53.877;-20.299;-11.752;74.328
188.046.875;-160.714;-65.171;-21.215;-11.142;109.432
188.066.406;-185.440;-75.549;-23.046;-10.531;134.463
188.085.938;-213.523;-83.486;-23.657;-0.9921;137.821
188.105.469;-241.300;-88.675;-22.741;-0.5952;118.590
188.125.000;-264.194;-92.338;-21.520;0.2595;83.791
188.144.531;-280.678;-95.391;-20.910;12.973;40.751
188.164.063;-292.277;-99.969;-21.520;19.994;-0.3816
188.183.594;-300.824;-106.685;-22.741;22.436;-44.414
188.203.125;-311.508;-114.316;-24.267;24.573;-72.192
188.222.656;-317.918;-123.168;-27.625;27.930;-90.201
188.242.188;-304.182;-132.937;-32.509;31.288;-111.569
188.261.719;-283.120;-140.263;-37.088;35.256;-133.547
188.281.250;-283.425;-142.094;-38.919;41.972;-145.757
188.300.781;-305.708;-138.431;-38.309;53.266;-146.978
188.320.313;-333.181;-135.684;-36.172;67.308;-137.210
188.339.844;-354.243;-136.905;-33.425;81.044;-114.927
188.359.375;-373.779;-140.568;-29.457;91.728;-88.675
188.378.906;-393.926;-145.452;-24.878;98.443;-78.297
188.398.438;-402.778;-150.946;-20.604;103.632;-85.317
188.417.969;-392.399;-155.830;-17.247;111.264;-83.486
188.437.500;-378.053;-156.441;-13.278;123.779;-65.171
188.457.031;-378.663;-149.420;-0.9005;138.126;-45.024
188.476.563;-392.094;-138.126;-0.6563;148.504;-25.183
188.496.094;-407.051;-128.968;-0.8089;148.810;-23.352
188.515.625;-414.072;-123.474;-13.584;138.126;-55.403
188.535.156;-406.136;-121.032;-21.520;122.863;-93.559
188.554.688;-382.631;-121.642;-30.372;108.211;-98.138
188.574.219;-353.022;-123.474;-38.309;95.085;-73.107
188.593.750;-330.128;-121.642;-44.414;84.707;-49.908
188.613.281;-318.834;-113.400;-48.077;76.770;-37.393
188.632.813;-319.444;-100.580;-49.908;69.444;-33.425
188.652.344;-324.634;-87.149;-52.350;60.897;-46.856
188.671.875;-324.023;-75.549;-57.234;51.740;-74.328
188.691.406;-311.508;-68.529;-65.171;43.803;-104.243
188.710.938;-278.541;-68.223;-74.939;38.919;-157.357
188.730.469;-222.680;-71.276;-82.875;36.477;-240.995
188.750.000;-161.325;-72.802;-85.928;35.256;-303.266
188.769.531;-113.706;-69.444;-82.570;34.035;-310.287
188.789.063;-84.707;-60.592;-74.939;31.593;-278.846
188.808.594;-71.886;-47.772;-67.002;27.930;-243.132
188.828.125;-70.971;-34.646;-60.592;22.131;-237.332
188.847.656;-74.634;-23.352;-55.403;15.110;-248.321
188.867.188;-76.465;-15.110;-49.298;0.9615;-235.195
188.886.719;-73.718;-0.9921;-43.193;0.6868;-185.745
188.906.250;-65.476;-0.8700;-38.614;0.4731;-106.685
188.925.781;-51.435;-10.226;-36.172;0.4121;-10.531
188.945.313;-35.562;-12.668;-35.867;0.8089;75.855
188.964.844;-22.436;-14.194;-37.088;18.468;125.916
188.984.375;-10.226;-15.415;-38.004;35.256;133.547
189.003.906;0.3510;-15.720;-36.783;56.319;113.400
189.023.438;19.689;-15.110;-34.341;81.349;88.675
189.042.969;38.004;-15.720;-31.899;105.769;77.076
189.062.500;59.066;-17.857;-31.593;124.084;81.349
189.082.031;81.654;-21.520;-33.120;134.158;94.170
189.101.563;102.106;-24.267;-35.562;139.957;74.023
189.121.094;117.063;-24.878;-37.393;144.536;0.3816
189.140.625;123.779;-22.131;-38.004;147.283;-40.446
189.160.156;122.558;-15.720;-36.783;150.641;-0.9615
189.179.688;117.674;-0.8394;-35.562;153.694;44.414
189.199.219;113.400;-0.3510;-36.172;153.388;77.991
189.218.750;113.400;-0.2595;-38.614;144.841;95.085
189.238.281;118.895;-0.4426;-39.225;129.579;100.885
189.257.813;126.832;-0.6868;-37.088;113.400;102.411
189.277.344;133.547;-0.7479;-31.899;100.885;103.938
189.296.875;137.821;-0.4121;-23.962;95.391;100.885
189.316.406;141.178;0.3205;-14.499;98.748;90.201
189.335.938;143.620;13.889;-0.5952;109.127;66.392
189.355.469;145.452;24.267;-0.1068;117.674;19.078
189.375.000;146.673;32.509;-0.1679;118.590;-60.897
189.394.531;148.199;38.004;-0.5952;115.842;-151.557
189.414.063;153.388;40.446;-0.9615;117.369;-208.944
189.433.594;163.156;42.582;-10.531;125.916;-214.438
189.453.125;175.672;44.414;-0.7479;136.905;-174.145
189.472.656;190.018;43.803;-0.2595;142.399;-109.127
189.492.188;205.891;41.972;0.1374;140.263;-52.045
189.511.719;216.270;41.667;0.5647;131.105;-14.499
189.531.250;218.101;43.498;11.142;115.232;17.857
189.550.781;214.133;45.635;18.468;95.696;44.414
189.570.313;208.333;47.772;28.541;78.602;35.867
189.589.844;204.365;48.993;39.225;66.087;0.3510
189.609.375;205.281;48.077;48.687;59.371;-0.4121
189.628.906;210.470;45.940;55.708;58.150;20.299
189.648.438;216.880;41.667;58.455;58.761;64.255
189.667.969;223.596;33.120;55.708;56.013;128.053
189.687.500;228.480;20.910;48.077;48.993;197.650
189.707.031;231.227;0.8394;38.614;40.751;252.595
189.726.563;231.227;-0.0763;29.762;34.341;290.751
189.746.094;225.733;-0.6868;22.131;29.762;304.487
189.765.625;217.186;-0.9921;15.415;26.709;300.824
189.785.156;211.081;-10.836;12.363;29.762;301.129
189.804.688;211.081;-0.9005;13.889;40.140;298.687
189.824.219;214.744;-0.4426;19.383;53.571;280.372
189.843.750;218.712;0.0458;26.099;63.950;242.521
189.863.281;221.459;0.4731;33.120;70.665;196.123
189.882.813;223.291;0.8394;39.835;74.328;162.851
189.902.344;222.985;11.447;44.414;73.413;136.600
189.921.875;218.712;12.363;47.161;67.613;107.906
189.941.406;213.523;11.142;48.993;60.897;98.138
189.960.938;210.165;0.9005;50.519;55.403;102.106
189.980.469;208.944;0.6563;51.740;52.045;86.233
190.000.000;208.944;0.2595;51.435;49.603;53.571
190.019.531;208.028;-0.2595;49.298;46.551;32.814
190.039.063;207.112;-0.9310;45.024;44.719;26.099
190.058.594;208.028;-16.331;38.919;45.024;0.5037
190.078.125;212.607;-23.046;32.814;46.551;-31.593
190.097.656;217.796;-27.625;27.930;49.908;-54.182
190.117.188;219.933;-30.678;24.267;54.182;-57.540
190.136.719;219.017;-32.509;21.215;59.982;-51.740
190.156.250;218.712;-31.899;20.299;67.002;-35.256
190.175.781;219.933;-29.151;20.604;74.328;-21.215
190.195.313;221.764;-26.404;19.994;78.602;-14.194
190.214.844;221.459;-24.267;16.941;77.991;-0.1984
190.234.375;218.407;-21.215;12.057;74.634;13.584
190.253.906;214.744;-17.247;0.6868;70.665;36.172
190.273.438;215.049;-12.363;0.1984;67.918;68.223
190.292.969;226.343;-0.9615;-0.1679;66.697;106.685
190.312.500;242.521;-10.531;-0.3816;68.529;163.462
190.332.031;246.490;-13.889;-0.4121;74.328;245.574
190.351.563;233.364;-17.552;-0.3510;81.960;330.433
190.371.094;213.828;-22.131;-0.4121;87.149;389.042
190.390.625;198.565;-27.930;-0.6868;87.454;411.020
190.410.156;190.629;-31.899;-10.531;82.570;397.589
190.429.688;186.355;-33.730;-13.889;73.413;359.127
190.449.219;182.387;-33.730;-16.636;61.508;309.676
190.468.750;177.808;-32.509;-17.857;50.214;267.247
190.488.281;173.840;-28.541;-16.636;41.972;246.795
190.507.813;171.398;-22.436;-12.973;37.088;237.332
190.527.344;170.788;-15.110;-0.8089;33.730;227.564
190.546.875;172.619;-0.8089;-0.2595;31.899;229.396
190.566.406;177.198;-0.1984;0.1679;31.288;234.585
190.585.938;186.050;0.1374;0.4121;30.983;218.407
190.605.469;198.565;0.2900;0.5037;29.762;191.239
190.625.000;211.996;0.4731;0.5952;29.457;176.282
190.644.531;220.543;0.7173;0.6868;30.678;166.514
190.664.063;222.070;0.9921;0.8089;32.814;151.862
190.683.594;218.407;12.668;0.9310;33.120;143.010
190.703.125;213.523;15.415;10.226;33.120;152.778
190.722.656;208.944;17.247;12.057;35.562;179.029
190.742.188;206.197;18.773;16.026;42.582;194.597
190.761.719;208.639;22.436;23.046;54.792;185.134
190.781.250;217.186;29.457;33.730;70.971;180.861
190.800.781;230.922;39.530;47.466;90.201;204.670
190.820.313;244.658;48.687;61.508;108.822;232.143
190.839.844;253.205;52.961;73.107;123.779;242.216
190.859.375;252.595;51.435;81.044;133.242;241.911
190.878.906;241.606;45.940;84.096;136.905;235.501
190.898.438;224.817;39.225;82.875;136.294;217.186
190.917.969;207.723;32.204;78.297;133.242;172.924
190.937.500;191.239;25.488;71.581;128.053;117.674
190.957.031;175.061;18.468;63.645;121.947;91.422
190.976.563;159.188;11.752;56.929;117.369;104.853
190.996.094;146.062;0.4731;52.656;114.621;138.126
191.015.625;136.294;-0.2900;49.603;110.653;166.209
191.035.156;128.358;-10.226;47.161;103.938;174.145
191.054.688;120.726;-17.247;45.330;96.612;179.640
191.074.219;112.790;-22.436;45.330;90.201;212.912
191.093.750;106.074;-26.404;45.940;84.707;260.226
191.113.281;102.717;-28.541;47.772;81.349;287.088
191.132.813;104.548;-27.625;51.129;81.349;296.245
191.152.344;110.653;-22.436;54.792;85.317;316.392
191.171.875;117.063;-15.415;57.845;91.117;349.359
191.191.406;119.505;-0.8089;58.761;94.780;363.400
191.210.938;118.590;-0.1984;57.234;93.254;343.254
191.230.469;116.758;0.3510;54.182;89.286;316.087
191.250.000;116.148;0.9921;51.129;85.928;299.298
191.269.531;117.674;16.026;48.687;83.181;284.951
191.289.063;120.116;21.520;48.993;81.960;272.741
191.308.594;123.168;27.015;51.435;83.181;259.615
191.328.125;127.442;30.678;53.877;84.096;223.291
191.347.656;132.326;30.678;54.792;81.654;146.368
191.367.188;138.126;27.320;54.182;76.160;63.034
191.386.719;145.452;22.131;52.656;69.750;11.447
191.406.250;152.473;17.247;51.740;64.255;-19.994
191.425.781;158.272;15.110;52.350;60.897;-44.719
191.445.313;163.462;16.026;54.182;59.982;-51.129
191.464.844;168.346;19.078;56.013;61.813;-31.593
191.484.375;173.230;24.267;57.540;65.171;0.1984
191.503.906;179.335;30.372;59.066;67.308;27.015
191.523.438;185.745;36.172;58.150;65.476;40.751
191.542.969;190.934;40.140;54.792;60.287;67.918
191.562.500;204.060;41.667;50.824;54.487;118.284
191.582.031;236.722;40.140;46.856;50.519;178.724
191.601.563;275.183;36.783;42.888;49.603;244.658
191.621.094;299.603;33.425;38.004;49.908;301.129
191.640.625;319.444;28.846;32.814;48.993;327.381
191.660.156;348.138;21.825;27.015;46.245;351.190
191.679.688;371.947;10.836;20.910;41.972;408.883
191.699.219;375.305;-0.2289;16.941;37.088;490.385
191.718.750;360.043;-12.668;17.247;35.562;567.308
191.738.281;337.759;-19.383;21.215;38.919;622.863
191.757.813;322.192;-24.878;27.625;45.940;642.705
191.777.344;325.244;-27.015;36.783;55.098;620.421
191.796.875;353.022;-22.436;47.772;65.476;556.624
191.816.406;402.473;-16.026;59.066;76.160;449.786
191.835.938;454.060;-12.973;68.834;83.486;305.098
191.855.469;481.227;-10.531;76.770;87.149;152.473
191.875.000;458.944;-0.2595;84.096;91.728;0.8089
191.894.531;385.073;13.889;91.728;100.885;-126.526
191.914.063;287.698;35.867;98.748;112.179;-219.017
191.933.594;199.786;55.098;104.853;121.642;-265.720
191.953.125;137.821;66.087;107.906;126.526;-300.214
191.972.656;101.496;67.002;106.990;124.389;-314.560
191.992.188;77.686;60.897;104.243;119.505;-295.635
192.011.719;56.319;53.877;103.022;117.063;-257.479
192.031.250;44.109;45.940;102.106;115.537;-219.017
192.050.781;45.024;33.730;98.138;108.516;-182.998
192.070.313;52.961;18.468;92.643;97.222;-132.326
192.089.844;66.087;0.5647;88.065;88.675;-67.918
192.109.375;102.106;-0.3205;84.707;86.233;-0.9921
192.128.906;187.882;-12.668;81.349;84.402;42.582
192.148.438;312.424;-27.625;76.160;80.433;98.748
192.167.969;405.220;-41.667;72.192;76.160;168.346
192.187.500;406.136;-45.635;71.581;75.855;237.637
192.207.031;331.654;-42.277;72.497;77.991;281.899
192.226.563;250.153;-38.309;71.581;77.686;342.643
192.246.094;206.807;-39.530;68.223;73.718;453.144
192.265.625;197.955;-47.772;63.034;69.750;569.750
192.285.156;205.586;-57.234;58.150;69.444;680.250
192.304.688;192.766;-62.424;55.708;76.160;803.571
192.324.219;128.663;-60.897;54.792;88.675;898.504
192.343.750;33.120;-56.624;51.129;97.222;911.325
192.363.281;-64.560;-54.792;43.193;95.085;824.939
192.382.813;-154.609;-56.013;32.814;87.759;660.104
192.402.344;-220.238;-59.066;22.741;82.570;466.575
192.421.875;-248.626;-63.034;16.026;81.349;275.794
192.441.406;-257.784;-66.697;14.805;85.317;112.485
192.460.938;-269.689;-69.750;17.857;94.475;0.9615
192.480.469;-280.678;-71.886;23.657;105.464;-72.802
192.500.000;-275.794;-74.023;30.067;114.011;-207.112
192.519.531;-265.110;-76.160;34.646;115.842;-362.485
192.539.063;-273.352;-79.212;35.256;110.653;-460.165
192.558.594;-301.129;-81.044;32.814;102.411;-465.049
192.578.125;-334.096;-81.044;29.457;96.001;-372.558
192.597.656;-365.232;-79.823;25.794;94.780;-211.691
192.617.188;-393.926;-78.907;21.215;97.833;-36.783
192.636.719;-420.177;-80.739;14.499;99.664;99.664
192.656.250;-442.460;-85.012;0.6868;99.359;181.166
192.675.781;-452.534;-90.507;0.0763;99.664;224.512
192.695.313;-442.766;-97.527;-0.2900;99.359;217.491
192.714.844;-415.598;-104.853;-0.5037;96.306;149.725
192.734.375;-384.463;-108.822;-0.5342;92.033;44.109
192.753.906;-362.485;-107.601;-0.2595;89.896;-105.464
192.773.438;-351.496;-105.159;0.1679;88.980;-288.919
192.792.969;-349.664;-102.717;0.9310;88.675;-411.020
192.812.500;-356.074;-97.222;19.994;91.117;-441.850
192.832.031;-370.727;-89.286;29.762;95.085;-457.418
192.851.563;-387.821;-81.349;36.783;98.138;-462.912
192.871.094;-404.609;-75.244;40.751;100.275;-400.336
192.890.625;-416.514;-71.886;41.667;102.411;-269.383
192.910.156;-413.767;-71.276;41.056;107.295;-103.938
192.929.688;-394.536;-73.718;38.004;111.874;74.023
192.949.219;-367.369;-78.297;31.593;111.569;244.963
192.968.750;-338.675;-83.486;23.962;106.990;394.841
192.988.281;-309.066;-86.844;17.552;100.885;519.994
193.007.813;-281.593;-87.759;13.278;91.728;602.411
193.027.344;-259.310;-86.233;10.836;79.518;625.305
193.046.875;-242.827;-83.181;0.8700;65.171;589.896
193.066.406;-229.396;-79.212;0.6868;51.435;503.816
193.085.938;-214.133;-74.634;0.5037;39.530;375.000
193.105.469;-195.818;-68.834;0.4426;30.983;215.354
193.125.000;-176.587;-61.813;0.5342;26.404;53.571
193.144.531;-155.525;-54.792;0.8089;23.046;-53.571
193.164.063;-131.716;-48.382;12.973;16.941;-86.233
193.183.594;-109.127;-41.972;19.078;0.8089;-80.433
193.203.125;-91.117;-34.341;24.267;-0.0763;-72.192
193.222.656;-75.855;-25.183;29.151;-0.6563;-74.939
193.242.188;-63.034;-14.499;33.730;-0.7479;-55.098
193.261.719;-54.792;-0.3510;37.698;-0.5952;11.142
193.281.250;-51.129;0.6868;41.667;-0.0153;67.918
193.300.781;-48.077;16.026;47.161;10.531;85.928
193.320.313;-42.277;23.352;53.266;25.488;102.106
193.339.844;-32.204;28.541;56.624;38.614;131.716
193.359.375;-17.552;31.593;55.098;44.109;175.672
193.378.906;-0.0458;32.814;48.077;44.719;244.353
193.398.438;14.194;31.899;39.530;46.856;338.980
193.417.969;24.878;30.067;32.204;52.350;447.650
193.437.500;33.730;28.846;24.573;57.540;543.193
193.457.031;43.193;28.541;13.889;54.792;595.085
193.476.563;53.877;27.320;0.0153;40.446;614.011
193.496.094;65.781;25.794;-13.584;19.689;651.862
193.515.625;78.297;24.573;-23.046;0.2289;732.143
193.535.156;90.201;23.046;-27.320;-0.6258;819.750
193.554.688;100.275;21.520;-27.320;-0.5037;849.054
193.574.219;109.127;20.299;-24.573;0.5952;773.046
193.593.750;117.979;19.994;-20.604;21.825;590.812
193.613.281;125.305;19.689;-15.415;38.309;368.895
193.632.813;131.410;20.604;-0.7784;53.877;183.913
193.652.344;138.736;23.657;0.2289;67.308;65.476
193.671.875;148.504;28.846;12.363;77.991;27.625
193.691.406;158.578;34.035;21.215;85.317;58.761
193.710.938;166.819;36.783;26.709;85.928;112.485
193.730.469;173.535;36.477;28.236;77.686;147.894
193.750.000;180.861;34.035;26.404;64.560;131.716
193.769.531;190.018;30.983;22.131;50.824;76.465
193.789.063;199.481;27.930;16.941;39.530;39.530
193.808.594;207.418;25.183;11.447;32.204;28.846
193.828.125;213.217;21.825;0.6258;28.846;0.7173
193.847.656;217.796;19.078;0.0763;27.930;-36.477
193.867.188;221.459;16.941;-0.4121;26.404;-81.960
193.886.719;223.596;14.499;-0.7479;22.131;-105.464
193.906.250;222.375;12.057;-0.8394;15.110;-100.275
193.925.781;218.101;10.531;-0.6868;0.8089;-77.686
193.945.313;213.523;0.9615;-0.1984;0.2289;-65.476
193.964.844;211.691;10.226;0.5342;-0.0153;-65.476
193.984.375;212.607;14.194;14.805;0.1374;-46.245
194.003.906;215.049;20.910;25.794;0.6563;0.2595
194.023.438;219.322;29.151;38.004;14.499;62.118
194.042.969;224.206;37.393;49.603;25.183;103.327
194.062.500;228.785;45.330;59.982;37.698;105.769
194.082.031;231.532;51.740;68.223;50.824;77.991
194.101.563;232.143;56.929;74.328;63.950;45.940
194.121.094;230.311;60.897;78.297;76.160;0.4426
194.140.625;228.785;64.560;80.433;87.454;-63.950
194.160.156;227.869;66.697;81.044;96.001;-120.726
194.179.688;226.648;67.002;80.739;101.801;-108.211
194.199.219;224.206;66.087;79.518;104.243;-38.614
194.218.750;221.459;63.950;75.549;102.411;22.741
194.238.281;219.322;61.203;70.055;97.833;56.013
194.257.813;218.407;57.845;64.255;92.338;81.960
194.277.344;215.965;52.961;59.982;86.844;99.359
194.296.875;211.996;48.077;57.234;81.349;102.717
194.316.406;207.418;44.109;55.708;77.076;104.243
194.335.938;202.534;40.751;56.319;74.328;115.842
194.355.469;198.260;37.393;57.845;72.192;148.810
194.375.000;195.513;33.425;59.371;70.971;200.702
194.394.531;193.376;29.457;60.592;70.665;248.321
194.414.063;190.018;25.794;61.203;69.750;285.256
194.433.594;184.829;23.046;61.508;69.139;305.098
194.453.125;180.250;23.352;63.034;72.192;277.930
194.472.656;176.282;26.709;66.087;78.297;231.532
194.492.188;173.840;31.288;70.055;85.012;227.564
194.511.719;172.314;36.477;73.413;92.033;259.005
194.531.250;171.398;40.446;75.855;98.138;291.361
194.550.781;172.619;43.193;76.770;101.496;313.645
194.570.313;178.114;44.719;77.076;101.496;326.770
194.589.844;185.134;45.330;77.076;99.054;332.570
194.609.375;190.324;45.024;76.770;93.254;318.223
194.628.906;191.545;44.414;77.076;84.096;284.951
194.648.438;189.103;43.498;77.076;73.107;246.184
194.667.969;184.524;42.277;75.244;61.813;204.365
194.687.500;178.114;41.361;71.276;50.519;169.567
194.707.031;170.177;40.140;67.918;39.530;146.978
194.726.563;160.714;38.004;66.697;30.678;120.421
194.746.094;151.862;34.646;65.476;23.046;81.044
194.765.625;144.841;30.067;63.339;12.973;44.719
194.785.156;140.263;25.488;62.118;0.3205;28.541
194.804.688;139.652;22.741;63.645;-0.0458;22.436
194.824.219;140.873;20.910;67.002;0.0763;13.584
194.843.750;142.705;18.773;70.665;0.7173;17.857
194.863.281;143.010;15.720;74.634;14.194;41.361
194.882.813;142.399;10.836;76.770;17.552;66.392
194.902.344;143.620;0.5952;77.076;19.078;78.602
194.921.875;147.589;0.3510;75.855;21.825;70.971
194.941.406;154.609;0.3205;74.023;26.709;36.172
194.960.938;162.851;0.2900;71.276;30.678;-11.447
194.980.469;170.482;0.2289;66.697;31.288;-39.835
195.000.000;178.114;0.0458;62.118;29.762;-38.919
195.019.531;186.966;-0.1374;59.066;27.625;-27.320
195.039.063;197.955;-0.2289;58.150;25.183;-0.5952
195.058.594;214.438;-0.0763;58.455;23.046;30.678
195.078.125;238.553;0.4731;59.982;21.825;67.308
195.097.656;264.805;12.668;61.203;20.910;91.117
195.117.188;281.899;20.299;62.729;22.131;107.601
195.136.719;282.204;25.183;64.866;28.541;137.210
195.156.250;266.026;27.015;67.308;38.004;195.513
195.175.781;241.911;27.015;69.750;45.940;272.131
195.195.313;217.796;26.709;72.497;52.656;341.117
195.214.844;198.871;26.099;77.076;59.371;390.568
195.234.375;186.355;27.015;82.570;66.392;423.535
195.253.906;179.029;28.236;88.370;72.802;430.250
195.273.438;172.619;27.625;92.033;76.465;396.062
195.292.969;165.293;24.878;92.643;75.549;330.128
195.312.500;161.020;22.131;89.591;73.107;251.984
195.332.031;163.767;21.825;86.844;74.328;164.988
195.351.563;174.756;23.962;86.538;81.960;63.339
195.371.094;189.408;27.625;87.454;93.254;-31.288
195.390.625;202.839;30.983;87.454;103.327;-92.338
195.410.156;211.996;33.425;85.623;108.211;-122.558
195.429.688;216.575;34.646;82.570;107.601;-124.695
195.449.219;216.880;34.646;78.297;103.327;-87.454
195.468.750;214.744;33.425;74.023;96.001;-25.794
195.488.281;211.386;32.814;70.665;87.759;23.352
195.507.813;208.944;33.425;69.444;80.739;48.687
195.527.344;207.723;34.646;70.665;75.244;74.328
195.546.875;207.112;35.256;73.107;69.139;113.400
195.566.406;206.807;34.951;74.939;60.287;155.220
195.585.938;208.028;33.120;76.160;49.603;176.587
195.605.469;211.996;32.204;76.160;39.225;159.188
195.625.000;216.575;32.814;75.244;29.762;115.842
195.644.531;219.017;34.951;73.718;22.131;82.265
195.664.063;217.491;37.088;72.497;18.468;77.076
195.683.594;214.438;39.225;72.192;19.994;88.675
195.703.125;211.996;41.056;72.497;25.488;117.674
195.722.656;211.081;42.582;72.497;34.035;172.924
195.742.188;211.691;43.498;72.497;43.193;223.291
195.761.719;211.996;44.719;72.802;52.045;230.311
195.781.250;213.217;47.161;72.802;61.203;188.187
195.800.781;215.965;48.993;72.802;69.444;111.874
195.820.313;220.238;49.603;73.107;75.855;26.099
195.839.844;224.206;48.993;72.802;81.960;-41.056
195.859.375;226.343;47.772;71.886;88.065;-78.907
195.878.906;226.648;47.466;70.665;94.475;-101.496
195.898.438;225.427;47.161;68.834;98.443;-116.148
195.917.969;222.680;46.551;67.613;98.443;-111.874
195.937.500;218.712;46.551;67.613;98.748;-87.759
195.957.031;213.523;47.161;67.613;100.580;-52.961
195.976.563;208.028;47.161;67.002;99.359;-0.3205
195.996.094;204.976;47.161;66.697;95.391;60.897
196.015.625;204.060;46.551;67.308;91.728;105.769
196.035.156;204.670;45.330;69.750;91.728;106.380
196.054.688;206.502;44.414;74.328;98.138;88.065
196.074.219;208.639;42.888;79.823;109.737;70.971
196.093.750;211.081;39.225;85.317;121.032;48.993
196.113.281;214.438;33.730;89.286;128.663;25.794
196.132.813;219.017;28.846;92.033;134.768;13.584
196.152.344;223.596;25.488;93.559;142.094;11.142
196.171.875;227.259;23.352;92.949;149.420;13.278
196.191.406;229.090;21.215;88.980;157.357;29.762
196.210.938;228.785;19.383;84.096;168.040;57.234
196.230.469;226.648;18.468;79.518;179.945;73.107
196.250.000;223.901;19.994;77.381;191.239;63.339
196.269.531;222.375;23.657;77.076;200.397;17.857
196.289.063;223.291;27.930;76.770;206.197;-60.287
196.308.594;226.954;31.593;76.465;208.028;-133.547
196.328.125;231.838;34.951;77.381;208.639;-171.398
196.347.656;237.027;38.614;79.518;209.860;-175.061
196.367.188;242.216;41.972;82.875;211.691;-136.600
196.386.719;247.711;43.498;85.623;209.249;-76.770
196.406.250;253.205;44.109;85.623;200.397;-58.150
196.425.781;257.784;44.109;83.486;187.882;-90.507
196.445.313;262.057;42.277;81.044;174.145;-114.927
196.464.844;264.805;40.140;78.907;162.241;-88.675
196.484.375;265.110;38.004;77.686;154.609;-33.730
196.503.906;262.668;35.562;77.686;150.641;0.8700
196.523.438;257.784;32.509;78.297;148.199;23.657
196.542.969;251.679;29.762;79.212;147.589;15.110
196.562.500;245.574;28.236;80.739;150.031;-0.1068
196.582.031;238.248;27.625;82.570;151.557;-0.7784
196.601.563;228.480;26.709;83.181;147.589;0.9921
196.621.094;219.322;25.183;82.570;139.347;65.781
196.640.625;212.607;23.046;82.570;131.410;152.167
196.660.156;205.586;21.825;82.570;125.000;250.153
196.679.688;196.734;20.910;80.739;118.284;355.464
196.699.219;189.408;20.604;77.991;111.569;470.849
196.718.750;186.050;20.604;74.939;107.601;554.182
196.738.281;186.661;21.825;71.886;108.516;546.245
196.757.813;188.187;23.352;68.834;112.790;467.796
196.777.344;192.155;24.267;66.392;116.148;378.968
196.796.875;202.534;25.488;64.866;117.369;267.857
196.816.406;215.965;28.236;63.950;118.895;106.990
196.835.938;230.311;30.983;64.560;122.558;-76.160
196.855.469;247.711;31.899;67.308;127.747;-248.321
196.875.000;263.584;30.067;71.276;134.158;-406.441
196.894.531;274.878;26.099;74.939;139.042;-546.245
196.914.063;284.035;20.299;78.297;140.873;-651.557
196.933.594;288.004;14.805;81.349;140.263;-713.217
196.953.125;285.562;11.142;84.402;135.989;-722.985
196.972.656;280.983;10.226;86.844;129.884;-677.503
196.992.188;272.131;11.752;89.286;123.779;-594.475
197.011.719;265.720;13.584;90.507;118.284;-503.816
197.031.250;279.151;12.973;89.591;112.790;-425.366
197.050.781;307.234;10.836;85.317;106.074;-357.906
197.070.313;317.918;0.7479;76.770;94.780;-296.245
197.089.844;292.582;0.3510;65.476;78.602;-266.636
197.109.375;252.595;-0.1679;54.792;61.813;-290.751
197.128.906;224.817;-0.9005;47.772;47.772;-320.665
197.148.438;211.386;-14.194;45.330;37.088;-306.319
197.167.969;198.871;-13.889;46.856;29.151;-263.584
197.187.500;177.808;-0.9310;51.129;24.267;-211.691
197.207.031;157.967;-0.3816;56.929;22.741;-142.705
197.226.563;148.504;0.0153;63.034;23.962;-63.645
197.246.094;133.547;0.1679;67.613;26.709;-0.8700
197.265.625;102.717;0.2900;70.360;29.762;0.3510
197.285.156;68.223;0.3510;70.971;31.899;-0.2289
197.304.688;44.109;0.2289;68.834;32.204;-15.720
197.324.219;37.698;-0.0153;66.087;34.646;-51.740
197.343.750;49.908;-0.2289;63.950;43.193;-95.696
197.363.281;74.634;-0.2289;61.813;52.961;-125.611
197.382.813;108.211;-0.1679;56.624;55.403;-156.441
197.402.344;142.399;-0.2289;50.214;51.129;-181.777
197.421.875;164.988;-0.2289;46.551;50.519;-163.156
197.441.406;169.872;-0.0458;47.466;59.066;-77.381
197.460.938;161.325;0.2595;51.435;71.581;61.508
197.480.469;146.673;0.5647;54.487;77.686;215.659
197.500.000;132.631;0.7479;56.929;76.160;340.201
197.519.531;119.811;0.6868;59.371;72.192;407.967
197.539.063;104.548;0.4731;61.508;69.139;397.589
197.558.594;89.896;0.1984;63.339;69.139;309.982
197.578.125;78.907;-0.0153;65.781;72.802;226.038
197.597.656;70.971;-0.2900;68.223;78.602;196.123
197.617.188;85.012;-0.7479;68.529;82.875;162.546
197.636.719;124.084;-13.278;66.392;85.317;80.739
197.656.250;145.147;-19.078;62.729;87.149;-32.204
197.675.781;125.916;-23.046;59.676;89.591;-135.989
197.695.313;86.233;-25.794;58.761;95.085;-210.470
197.714.844;45.635;-27.625;59.982;102.106;-297.466
197.734.375;10.226;-27.625;61.203;107.906;-418.956
197.753.906;-20.910;-25.794;61.813;113.706;-538.309
197.773.438;-51.435;-23.657;61.203;121.337;-629.884
197.792.969;-85.317;-23.962;57.234;125.305;-657.357
197.812.500;-122.863;-27.930;48.993;118.284;-623.168
197.832.031;-157.662;-33.120;38.919;102.717;-597.222
197.851.563;-182.387;-35.867;30.678;85.928;-552.350
197.871.094;-194.902;-34.646;25.488;71.276;-429.945
197.890.625;-197.039;-30.372;23.352;59.066;-263.889
197.910.156;-195.208;-24.878;23.657;49.298;-77.686
197.929.688;-193.681;-18.468;26.099;46.856;138.126
197.949.219;-193.987;-13.278;29.762;52.656;384.768
197.968.750;-197.650;-11.142;31.593;58.455;646.673
197.988.281;-205.281;-12.973;31.288;59.676;877.747
198.007.813;-215.354;-17.247;31.288;59.676;1.012.668
198.027.344;-226.954;-22.436;30.983;61.813;1.017.857
198.046.875;-237.943;-28.236;29.457;67.002;913.767
198.066.406;-247.405;-33.730;27.015;74.023;754.731
198.085.938;-250.153;-35.562;24.573;81.044;590.812
198.105.469;-240.995;-32.204;21.215;85.623;451.313
198.125.000;-223.596;-24.878;16.026;85.012;344.780
198.144.531;-202.228;-18.162;10.531;82.265;259.921
198.164.063;-173.535;-14.805;0.6563;80.128;186.966
198.183.594;-130.495;-16.026;0.2289;75.549;151.252
198.203.125;-95.085;-19.383;-0.1984;66.392;187.882
198.222.656;-93.559;-19.078;-0.4426;57.845;310.287
198.242.188;-111.569;-15.720;-0.3816;54.792;486.416
198.261.719;-118.284;-12.973;-0.1679;57.845;639.347
198.281.250;-92.033;-14.805;0.0763;65.171;745.574
198.300.781;0.9615;-36.477;0.1068;71.581;840.201
198.320.313;210.470;-88.675;-0.5952;71.886;921.703
198.339.844;409.188;-147.894;-18.468;63.950;979.396
198.359.375;467.186;-175.672;-27.625;51.129;1.058.150
198.378.906;379.579;-161.020;-29.151;38.614;1.162.241
198.398.438;257.479;-123.779;-23.962;34.951;1.207.723
198.417.969;188.797;-87.149;-15.110;43.498;1.131.410
198.437.500;166.514;-58.761;-0.6868;56.013;914.377
198.457.031;152.778;-36.477;-0.1984;65.171;565.476
198.476.563;149.725;-17.552;0.1068;71.276;175.061
198.496.094;168.346;0.2595;0.4426;74.939;-126.221
198.515.625;218.101;20.910;0.5037;70.360;-299.603
198.535.156;280.372;32.509;0.0458;56.319;-401.557
198.554.688;309.676;39.225;-0.2900;40.446;-451.923
198.574.219;309.982;43.193;-0.1068;30.983;-435.134
198.593.750;315.476;45.635;0.3205;28.846;-405.830
198.613.281;310.287;51.129;0.8700;30.983;-437.576
198.632.813;281.899;58.455;14.194;34.341;-519.383
198.652.344;272.741;59.371;15.110;31.593;-582.570
198.671.875;327.381;50.519;0.8089;19.383;-559.982
198.691.406;436.050;37.698;-0.2900;0.4731;-442.460
198.710.938;509.921;30.678;-11.447;-0.3510;-304.182
198.730.469;508.700;30.678;-17.247;-0.7784;-211.386
198.750.000;492.521;28.236;-24.573;-11.752;-151.557
198.769.531;476.648;20.604;-34.951;-14.499;-139.652
198.789.063;432.692;13.889;-43.498;-14.805;-192.766
198.808.594;367.979;10.531;-47.466;-14.194;-183.608
198.828.125;304.182;10.836;-48.077;-15.720;0.1374
198.847.656;267.552;17.857;-45.635;-20.604;336.233
198.867.188;272.131;32.814;-41.056;-28.236;762.668
198.886.719;271.825;56.929;-34.951;-35.562;1.223.596
198.906.250;234.890;85.317;-27.930;-40.751;1.672.924
198.925.781;215.049;105.464;-22.741;-41.667;2.026.099
198.945.313;263.584;110.043;-20.910;-39.530;2.154.915
198.964.844;353.327;101.190;-21.215;-38.919;2.056.624
198.984.375;424.145;88.065;-21.215;-41.056;1.820.055
199.003.906;455.281;80.433;-19.689;-44.719;1.497.100
199.023.438;465.659;80.433;-17.857;-47.772;1.187.882
199.042.969;491.606;82.265;-16.026;-48.382;980.922
199.062.500;562.118;83.791;-15.415;-46.856;757.784
199.082.031;633.242;90.812;-13.889;-43.498;388.126
199.101.563;599.359;110.043;-0.7784;-37.393;-34.951
199.121.094;452.534;142.094;0.1068;-29.762;-385.378
199.140.625;288.919;177.198;0.9310;-23.657;-605.464
199.160.156;169.872;202.228;14.194;-18.773;-705.281
199.179.688;120.116;209.860;16.941;-13.584;-818.834
199.199.219;164.683;203.755;19.689;-0.6563;-1.068.529
199.218.750;258.394;193.987;21.520;0.0153;-1.429.335
199.238.281;303.571;189.713;22.131;0.3816;-1.782.509
199.257.813;273.657;191.239;22.131;0.2900;-2.006.868
199.277.344;212.302;193.071;22.131;-0.1679;-2.054.182
199.296.875;166.209;193.987;23.352;-0.5952;-1.957.418
199.316.406;172.009;194.292;26.709;-0.7479;-1.771.215
199.335.938;208.028;194.292;31.899;-0.7784;-1.530.067
199.355.469;215.965;197.344;38.309;-0.6258;-1.226.648
199.375.000;196.123;203.144;44.719;-0.1984;-907.051
199.394.531;178.114;207.723;49.603;0.4426;-706.807
199.414.063;169.261;208.944;52.350;13.889;-665.598
199.433.594;165.293;205.891;52.656;24.573;-674.145
199.453.125;162.241;199.481;51.129;35.256;-623.474
199.472.656;157.662;192.460;49.908;48.077;-494.048
199.492.188;153.388;185.440;49.603;63.645;-345.391
199.511.719;152.167;178.419;48.993;79.518;-239.469
199.531.250;156.136;170.788;46.245;93.254;-193.376
199.550.781;168.346;162.241;40.140;104.548;-183.913
199.570.313;188.187;152.473;31.593;114.316;-159.188
199.589.844;212.607;142.399;20.910;121.337;-89.286
199.609.375;235.501;130.800;0.7479;122.558;25.794
199.628.906;255.037;118.284;-0.5647;118.895;172.619
199.648.438;269.689;106.990;-15.110;116.148;309.676
199.667.969;276.709;98.748;-17.552;116.758;437.882
199.687.500;276.099;94.780;-14.194;117.063;567.308
199.707.031;271.520;96.306;-0.8700;112.485;618.590
199.726.563;266.026;101.496;-0.4426;99.664;481.532
199.746.094;264.194;108.211;0.0153;81.044;148.810
199.765.625;268.468;115.232;0.3816;60.287;-259.005
199.785.156;280.983;120.421;0.2900;37.698;-614.622
199.804.688;297.466;121.642;-0.3816;12.057;-837.759
199.824.219;305.708;117.979;-12.973;-12.668;-890.263
199.843.750;297.161;111.264;-20.910;-33.120;-799.908
199.863.281;272.436;103.327;-28.846;-48.687;-656.441
199.882.813;240.995;95.696;-38.004;-61.813;-544.109
199.902.344;211.996;89.896;-46.245;-71.581;-498.626
199.921.875;190.629;87.454;-51.435;-74.634;-545.940
199.941.406;189.408;87.454;-53.266;-70.665;-654.915
199.960.938;211.081;88.370;-52.045;-59.676;-760.836
199.980.469;230.922;90.201;-48.077;-43.498;-889.652
200.000.000;233.974;94.170;-42.277;-25.488;-1.088.980
200.019.531;225.733;99.054;-34.646;-0.9310;-1.318.529
200.039.063;214.133;105.769;-26.404;0.3510;-1.464.438
200.058.594;203.449;113.706;-18.468;14.194;-1.467.491
200.078.125;193.376;123.474;-11.142;24.878;-1.346.001
200.097.656;176.282;133.547;-0.4121;38.004;-1.104.548
200.117.188;148.504;142.399;0.2595;51.129;-789.530
200.136.719;119.811;148.810;0.9310;62.424;-518.162
200.156.250;103.327;154.304;14.805;72.192;-373.779
200.175.781;103.632;158.272;19.078;82.875;-344.780
200.195.313;115.842;159.799;22.436;96.306;-383.242
200.214.844;134.768;158.578;24.573;110.958;-456.807
200.234.375;155.525;154.304;26.404;122.253;-547.161
200.253.906;170.482;148.199;27.320;128.663;-646.367
200.273.438;172.924;142.705;27.015;131.716;-737.943
200.292.969;164.988;138.431;25.488;132.631;-811.508
200.312.500;150.641;134.463;22.741;131.716;-885.073
200.332.031;131.410;131.105;16.331;125.000;-950.702
200.351.563;110.348;129.274;0.6563;108.516;-942.460
200.371.094;93.559;128.663;-0.4426;82.265;-797.466
200.390.625;86.538;129.579;-17.247;49.908;-501.679
200.410.156;89.896;132.021;-30.678;16.331;-109.737
200.429.688;97.527;134.463;-43.193;-13.278;297.161
200.449.219;105.159;134.463;-52.961;-33.730;637.821
200.468.750;110.348;132.326;-58.761;-41.361;754.426
200.488.281;112.485;128.968;-61.203;-38.309;545.330
200.507.813;114.011;126.221;-62.118;-32.814;97.222
200.527.344;116.453;124.389;-62.729;-30.067;-423.535
200.546.875;118.590;122.863;-63.950;-33.425;-853.633
200.566.406;120.421;121.642;-64.255;-42.277;-1.105.464
200.585.938;122.253;121.032;-62.118;-51.740;-1.168.040
200.605.469;123.474;120.726;-57.234;-56.624;-1.059.371
200.625.000;124.084;119.505;-51.435;-59.371;-862.790
200.644.531;123.168;118.590;-45.024;-62.729;-682.692
200.664.063;118.895;119.200;-37.698;-65.476;-554.182
200.683.594;113.706;121.947;-30.067;-64.866;-479.396
200.703.125;109.737;126.221;-23.962;-59.982;-499.542
200.722.656;106.380;131.105;-19.994;-52.350;-617.063
200.742.188;102.106;135.073;-17.857;-45.024;-741.606
200.761.719;96.306;138.126;-16.331;-38.919;-797.772
200.781.250;89.591;140.568;-15.415;-34.341;-776.709
200.800.781;82.875;142.705;-13.278;-29.151;-721.459
200.820.313;77.991;144.536;-0.8089;-21.215;-700.702
200.839.844;75.549;146.673;-0.0153;-10.226;-718.101
200.859.375;73.107;149.115;0.7784;0.1984;-733.974
200.878.906;68.529;150.336;14.499;14.499;-778.541
200.898.438;61.508;148.810;18.773;27.015;-893.315
200.917.969;54.487;143.620;20.910;38.614;-1.036.477
200.937.500;47.466;135.073;21.825;48.993;-1.125.611
200.957.031;41.972;125.916;23.352;61.508;-1.132.631
200.976.563;40.140;117.369;24.878;77.991;-1.087.759
200.996.094;42.582;109.737;25.183;93.559;-1.026.099
201.015.625;48.687;103.022;24.573;105.159;-977.869
201.035.156;56.013;96.306;23.657;113.400;-956.502
201.054.688;60.592;90.507;21.520;119.505;-921.398
201.074.219;59.982;85.623;17.552;121.947;-814.255
201.093.750;53.877;81.654;11.752;119.505;-650.641
201.113.281;43.498;79.212;0.6258;116.453;-487.637
201.132.813;34.341;79.823;0.3510;117.369;-341.728
201.152.344;30.067;82.570;0.1984;120.421;-236.416
201.171.875;28.541;84.402;-0.2289;118.590;-220.849
201.191.406;26.709;83.486;-10.836;108.211;-256.258
201.210.938;22.131;79.823;-21.215;88.370;-227.564
201.230.469;16.636;74.634;-30.678;61.813;-98.748
201.250.000;14.499;71.276;-35.256;35.867;95.696
201.269.531;16.331;72.192;-34.646;18.773;323.718
201.289.063;18.773;76.160;-29.151;11.142;479.701
201.308.594;18.773;80.128;-22.741;0.7173;417.430
201.328.125;15.720;81.960;-18.162;0.0153;147.283
201.347.656;12.363;82.570;-15.110;-0.9615;-176.587
201.367.188;11.447;83.181;-10.836;-18.773;-445.513
201.386.719;12.973;83.791;-0.5952;-24.878;-642.399
201.406.250;14.499;84.096;-0.1374;-24.267;-790.751
201.425.781;15.720;85.012;0.0153;-16.026;-922.009
201.445.313;16.941;85.623;-0.2289;-0.5647;-1.070.971
201.464.844;17.552;83.486;-0.8700;0.1068;-1.259.005
201.484.375;17.247;79.518;-17.857;0.2900;-1.412.546
201.503.906;16.941;75.549;-27.015;0.2289;-1.424.756
201.523.438;16.941;72.192;-34.035;0.2900;-1.270.604
201.542.969;17.857;71.276;-37.088;0.6258;-961.081
201.562.500;19.689;73.413;-37.393;11.142;-559.982
201.582.031;19.994;75.549;-35.256;18.162;-251.984
201.601.563;17.552;77.381;-29.457;31.593;-195.208
201.621.094;13.889;78.297;-20.604;49.298;-366.758
201.640.625;0.8394;77.686;-11.142;63.034;-649.115
201.660.156;0.0153;76.160;-0.2289;68.834;-927.808
201.679.688;-0.9310;75.244;0.4731;69.444;-1.099.664
201.699.219;-17.552;74.939;10.531;68.223;-1.104.854
201.718.750;-26.404;74.939;14.499;65.781;-933.608
201.738.281;-37.393;74.023;16.026;62.424;-657.967
201.757.813;-45.940;72.802;17.552;62.424;-393.315
201.777.344;-51.435;72.192;20.299;68.834;-193.681
201.796.875;-57.845;71.886;22.741;80.433;-77.076
201.816.406;-63.645;70.055;23.046;93.559;-56.624
201.835.938;-68.223;66.697;19.689;102.411;-124.084
201.855.469;-74.328;60.897;12.363;101.801;-274.267
201.875.000;-81.960;52.961;0.2289;94.170;-471.459
201.894.531;-89.286;44.719;-0.7479;85.623;-657.357
201.914.063;-95.696;35.867;-16.331;78.297;-793.193
201.933.594;-99.664;25.488;-24.878;69.444;-863.095
201.953.125;-97.833;15.415;-30.983;59.982;-897.894
201.972.656;-87.454;0.7173;-34.035;51.740;-911.325
201.992.188;-71.581;0.1679;-34.951;44.719;-849.054
202.011.719;-58.150;-0.1068;-34.646;37.393;-681.777
202.031.250;-51.740;-0.2289;-34.341;29.457;-460.775
202.050.781;-50.824;-0.1679;-35.256;21.520;-247.405
202.070.313;-51.129;0.0153;-36.477;15.415;-65.171
202.089.844;-47.161;0.1984;-37.393;12.057;108.822
202.109.375;-39.530;0.3205;-37.698;11.447;281.288
202.128.906;-30.372;0.4426;-35.867;14.805;390.568
202.148.438;-20.299;0.7173;-31.899;22.741;398.810
202.167.969;-11.447;12.668;-26.709;35.867;333.181
202.187.500;-0.3510;19.994;-21.825;52.045;220.238
202.207.031;0.2900;26.404;-19.994;64.866;55.708
202.226.563;0.5952;30.678;-20.910;70.055;-170.482
202.246.094;0.3510;33.425;-21.520;70.665;-456.807
202.265.625;-0.2289;35.562;-19.383;72.802;-738.858
202.285.156;-0.7479;36.172;-14.194;79.518;-937.576
202.304.688;-0.6258;33.425;-0.8394;88.980;-1.055.098
202.324.219;-0.0763;29.151;-0.2900;98.748;-1.122.558
202.343.750;0.0458;26.099;0.1679;106.685;-1.152.473
202.363.281;-0.6258;24.573;0.5647;111.569;-1.135.073
202.382.813;-17.247;21.825;0.7479;112.790;-1.071.581
202.402.344;-26.099;15.720;0.6563;110.348;-992.216
202.421.875;-29.457;0.7479;0.3205;103.938;-881.715
202.441.406;-24.878;-0.1679;-0.2900;92.949;-706.197
202.460.938;-0.9310;-11.752;-12.363;77.076;-490.385
202.480.469;0.9615;-19.383;-22.131;58.150;-300.519
202.500.000;20.604;-21.215;-28.541;40.751;-180.556
202.519.531;19.689;-16.941;-29.762;28.846;-91.117
202.539.063;11.142;-10.226;-28.541;20.604;-19.994
202.558.594;0.1374;-0.4426;-25.794;16.026;-34.341
202.578.125;-0.6868;-0.0458;-22.131;16.026;-138.126
202.597.656;-15.415;0.1679;-18.468;16.026;-255.037
202.617.188;-24.267;0.2289;-14.499;14.805;-312.424
202.636.719;-30.983;0.1984;-0.9005;16.026;-276.099
202.656.250;-34.646;0.2595;-0.1984;22.131;-153.694
202.675.781;-40.446;0.3205;0.4426;31.899;-0.4121
202.695.313;-50.519;0.3510;12.057;47.466;42.277
202.714.844;-61.813;0.3510;20.299;68.223;-97.833
202.734.375;-71.276;0.2289;24.878;85.623;-368.590
202.753.906;-79.212;-0.1068;23.352;92.338;-662.546
202.773.438;-87.454;-0.7173;16.941;89.896;-889.042
202.792.969;-96.612;-13.584;0.8700;83.181;-983.974
202.812.500;-105.464;-20.910;0.1374;75.549;-941.545
202.832.031;-113.095;-28.846;-0.1068;69.444;-799.298
202.851.563;-119.200;-36.172;-0.0458;65.476;-633.852
202.871.094;-122.558;-41.361;0.1679;63.645;-566.087
202.890.625;-123.168;-44.109;0.3816;65.171;-660.409
202.910.156;-122.558;-47.161;0.5647;68.529;-854.243
202.929.688;-120.726;-51.129;0.5647;69.139;-1.023.657
202.949.219;-114.927;-55.098;0.3205;66.697;-1.095.696
202.968.750;-105.159;-58.455;-0.1068;60.287;-1.087.759
202.988.281;-93.864;-61.813;-0.8089;51.129;-1.034.646
203.007.813;-82.265;-63.950;-15.720;42.888;-929.335
203.027.344;-71.581;-63.645;-22.436;38.309;-780.983
203.046.875;-63.950;-62.118;-29.457;33.730;-631.105
203.066.406;-59.371;-61.203;-38.309;25.183;-486.722
203.085.938;-56.624;-61.508;-48.993;12.057;-327.381
203.105.469;-55.708;-63.034;-58.455;-0.1068;-163.462
203.125.000;-57.540;-64.866;-64.255;-12.973;-47.466
203.144.531;-59.676;-67.918;-65.171;-23.962;-13.584
203.164.063;-60.592;-70.055;-62.729;-33.120;-32.509
203.183.594;-60.897;-69.750;-58.150;-40.140;-45.024
203.203.125;-63.034;-66.697;-52.961;-45.024;0.3816
203.222.656;-68.223;-62.729;-48.382;-46.551;119.505
203.242.188;-77.686;-59.982;-44.109;-43.803;187.271
203.261.719;-90.507;-59.066;-41.056;-37.698;113.706
203.281.250;-103.938;-58.761;-38.919;-29.151;-17.857
203.300.781;-115.232;-59.066;-35.867;-17.857;-96.612
203.320.313;-123.168;-59.371;-31.288;-0.3510;-91.422
203.339.844;-126.832;-58.150;-25.183;13.584;-18.773
203.359.375;-124.389;-54.487;-16.941;35.562;29.762
203.378.906;-117.369;-49.908;-0.9310;58.150;-74.023
203.398.438;-110.043;-45.940;-0.4426;76.160;-354.548
203.417.969;-100.885;-43.803;-0.2595;86.538;-693.681
203.437.500;-88.675;-42.888;-0.2289;89.896;-983.974
203.457.031;-77.686;-41.972;-0.3510;85.623;-1.195.208
203.476.563;-74.939;-42.277;-0.6563;72.497;-1.316.697
203.496.094;-81.654;-44.719;-12.973;50.824;-1.360.348
203.515.625;-92.338;-48.993;-22.436;23.657;-1.349.969
203.535.156;-103.022;-53.266;-33.120;-0.4121;-1.283.120
203.554.688;-114.011;-58.150;-43.498;-30.067;-1.150.336
203.574.219;-126.832;-63.034;-52.656;-50.519;-958.333
203.593.750;-138.736;-67.308;-59.676;-62.424;-742.827
203.613.281;-147.894;-69.444;-64.255;-63.950;-530.983
203.632.813;-155.220;-68.223;-66.087;-55.708;-301.129
203.652.344;-160.714;-64.560;-64.866;-39.225;-48.687
203.671.875;-164.988;-59.982;-62.118;-19.078;166.514
203.691.406;-167.735;-55.403;-60.287;-0.2900;307.234
203.710.938;-166.209;-49.908;-59.676;0.7784;387.515
203.730.469;-160.409;-42.582;-58.761;16.941;441.239
203.750.000;-153.083;-33.730;-56.013;27.625;481.838
203.769.531;-146.673;-25.794;-51.435;38.614;465.354
203.789.063;-141.484;-19.383;-45.635;48.382;348.443
203.808.594;-135.989;-15.720;-38.919;57.540;146.062
203.828.125;-129.579;-12.973;-33.120;65.476;-91.422
203.847.656;-122.558;-11.142;-29.151;69.139;-310.897
203.867.188;-116.453;-11.142;-28.236;65.476;-483.974
203.886.719;-111.264;-12.668;-30.372;56.319;-588.370
203.906.250;-106.074;-16.331;-33.730;44.719;-595.696
203.925.781;-102.411;-21.520;-39.225;30.067;-524.267
203.945.313;-100.275;-26.709;-45.330;12.363;-399.115
203.964.844;-97.527;-31.288;-49.908;-0.5647;-210.470
203.984.375;-93.864;-35.562;-53.571;-24.573;29.762
204.003.906;-90.507;-39.530;-58.150;-43.498;232.753
204.023.438;-86.844;-41.361;-62.118;-59.371;285.562
204.042.969;-82.875;-40.446;-65.171;-70.055;200.092
204.062.500;-78.907;-37.698;-66.392;-75.244;87.454
204.082.031;-76.160;-33.730;-65.781;-76.770;0.6563
204.101.563;-76.465;-30.067;-63.339;-76.770;-53.266
204.121.094;-78.907;-27.015;-57.845;-76.770;-102.411
204.140.625;-79.823;-23.046;-50.519;-76.465;-124.389
204.160.156;-76.770;-17.552;-42.277;-74.634;-139.652
204.179.688;-68.834;-11.447;-34.035;-70.665;-173.230
204.199.219;-56.319;-0.4731;-26.404;-66.087;-167.125
204.218.750;-40.140;0.2900;-20.910;-61.203;-90.507
204.238.281;-23.046;10.836;-17.552;-56.013;0.7173
204.257.813;-0.8394;16.636;-16.941;-50.214;113.400
204.277.344;0.1679;18.773;-18.773;-43.498;224.512
204.296.875;0.6563;17.247;-22.436;-36.783;280.983
204.316.406;0.5952;11.752;-27.015;-29.457;223.291
204.335.938;0.1984;0.5037;-31.288;-18.773;18.468
204.355.469;-0.4121;-0.1374;-35.256;-0.6868;-308.455
204.375.000;-12.668;-0.7479;-39.225;0.0458;-639.042
204.394.531;-22.741;-12.973;-42.888;0.1374;-863.400
204.414.063;-34.035;-17.247;-47.466;-0.1374;-951.618
204.433.594;-47.772;-20.299;-51.435;-0.5647;-943.987
204.453.125;-63.339;-23.046;-52.656;-0.7479;-925.977
204.472.656;-75.855;-23.352;-49.908;-0.7173;-952.534
204.492.188;-82.265;-20.604;-43.803;-0.7784;-1.027.625
204.511.719;-81.960;-14.499;-35.256;-10.836;-1.116.758
204.531.250;-76.465;-0.7479;-27.015;-16.331;-1.155.220
204.550.781;-69.139;-0.1374;-21.520;-22.741;-1.074.023
204.570.313;-62.424;0.2595;-18.773;-28.236;-889.957
204.589.844;-58.455;0.4731;-18.162;-31.899;-750.763
204.609.375;-55.708;0.5342;-17.552;-32.814;-754.121
204.628.906;-51.129;0.6868;-17.247;-29.151;-840.201
204.648.438;-44.719;0.9310;-17.247;-22.741;-910.409
204.667.969;-39.530;11.142;-18.162;-17.247;-903.388
204.687.500;-36.477;0.9310;-20.910;-13.889;-812.118
204.707.031;-35.256;0.5037;-25.488;-12.363;-693.071
204.726.563;-34.341;-0.0458;-31.899;-14.805;-566.697
204.746.094;-34.951;-0.6563;-40.140;-20.604;-340.201
204.765.625;-38.004;-12.973;-48.993;-28.846;28.541
204.785.156;-42.888;-20.604;-59.371;-40.140;459.554
204.804.688;-50.214;-29.457;-70.971;-55.403;838.980
204.824.219;-56.319;-38.004;-80.433;-68.529;1.059.982
204.843.750;-55.708;-43.498;-85.012;-73.413;1.088.675
204.863.281;-49.908;-45.024;-84.707;-67.613;930.556
204.882.813;-41.972;-44.719;-80.739;-53.266;588.980
204.902.344;-35.562;-44.414;-74.023;-33.730;87.149
204.921.875;-33.730;-45.330;-67.613;-16.026;-500.458
204.941.406;-36.783;-47.772;-64.866;-0.7784;-997.711
204.960.938;-42.582;-50.519;-65.781;-10.531;-1.248.626
204.980.469;-48.382;-51.740;-66.392;-19.383;-1.258.700
205.000.000;-50.214;-50.519;-62.424;-27.320;-1.118.285
205.019.531;-49.298;-46.551;-54.487;-30.983;-940.018
205.039.063;-48.993;-42.888;-44.414;-30.983;-856.990
205.058.594;-50.824;-39.530;-34.951;-28.236;-938.187
205.078.125;-54.182;-36.783;-29.151;-25.488;-1.143.926
205.097.656;-56.319;-34.951;-28.846;-26.709;-1.336.233
205.117.188;-57.845;-34.035;-33.425;-33.425;-1.355.159
205.136.719;-59.982;-33.730;-40.446;-44.414;-1.203.144
205.156.250;-63.645;-34.035;-47.161;-54.487;-1.012.057
205.175.781;-70.055;-34.951;-50.519;-60.287;-871.032
205.195.313;-78.602;-35.867;-51.129;-62.424;-795.635
205.214.844;-87.454;-36.477;-50.214;-62.424;-799.603
205.234.375;-95.696;-36.477;-48.993;-61.813;-875.000
205.253.906;-100.275;-36.172;-47.466;-63.034;-949.176
205.273.438;-101.190;-36.172;-47.161;-67.613;-944.597
205.292.969;-99.054;-35.256;-48.077;-76.160;-803.571
205.312.500;-94.475;-34.341;-48.382;-86.844;-519.078
205.332.031;-87.149;-33.120;-47.161;-96.306;-165.904
205.351.563;-79.212;-31.593;-45.024;-102.106;213.523
205.371.094;-73.718;-30.067;-42.888;-104.243;593.254
205.390.625;-68.834;-28.846;-39.530;-99.969;860.653
205.410.156;-64.560;-29.151;-33.730;-88.675;943.987
205.429.688;-62.424;-30.983;-25.488;-73.718;874.389
205.449.219;-62.424;-32.814;-16.026;-57.540;660.409
205.468.750;-62.424;-33.425;-0.6258;-38.309;297.161
205.488.281;-63.034;-32.814;0.1068;-18.773;-132.326
205.507.813;-63.950;-32.814;0.5952;-0.3510;-519.689
205.527.344;-63.950;-32.509;0.9310;0.5342;-795.940
205.546.875;-61.508;-31.593;12.668;10.531;-904.609
205.566.406;-58.455;-30.983;14.805;14.194;-860.958
205.585.938;-59.066;-30.983;14.805;15.720;-748.932
205.605.469;-64.866;-31.593;12.363;13.584;-625.305
205.625.000;-73.718;-33.425;0.8700;0.8394;-506.258
205.644.531;-83.791;-36.477;0.4426;0.0458;-362.179
205.664.063;-93.864;-39.530;0.0153;-11.142;-182.998
205.683.594;-101.496;-41.667;-0.3510;-23.352;-54.182
205.703.125;-102.411;-41.667;-0.5342;-30.678;-16.636
205.722.656;-96.612;-38.614;-0.6563;-33.120;-11.752
205.742.188;-89.896;-35.256;-0.8089;-32.509;-19.689
205.761.719;-86.233;-32.814;-0.9615;-28.846;-38.919
205.781.250;-85.928;-31.899;-10.531;-22.741;-46.245
205.800.781;-88.675;-33.425;-11.142;-16.331;-52.961
205.820.313;-92.033;-37.393;-11.142;-10.531;-81.654
205.839.844;-93.559;-41.667;-10.531;-0.5037;-134.158
205.859.375;-93.864;-45.940;-0.9005;0.0153;-213.523
205.878.906;-95.391;-50.214;-0.6868;0.6563;-323.107
205.898.438;-98.138;-54.487;-0.4426;14.499;-436.355
205.917.969;-99.969;-57.845;-0.0458;25.183;-537.088
205.937.500;-100.885;-60.287;0.2595;34.035;-666.209
205.957.031;-100.885;-62.424;0.3205;36.477;-844.170
205.976.563;-100.275;-64.560;0.1679;31.288;-1.010.836
205.996.094;-99.359;-66.697;-0.1679;19.689;-1.088.980
206.015.625;-100.885;-68.529;-0.5952;0.4426;-1.043.498
206.035.156;-103.938;-69.139;-10.226;-0.9615;-884.463
206.054.688;-107.601;-67.918;-13.584;-19.994;-625.305
206.074.219;-113.095;-66.087;-16.026;-27.015;-295.635
206.093.750;-119.811;-63.645;-17.857;-32.204;22.741
206.113.281;-125.611;-61.813;-17.857;-35.256;255.037
206.132.813;-129.884;-60.897;-15.415;-34.951;362.179
206.152.344;-133.547;-61.508;-12.973;-30.983;339.591
206.171.875;-136.600;-62.424;-10.836;-22.436;230.922
206.191.406;-138.431;-63.034;-0.9005;-11.447;84.096
206.210.938;-139.347;-64.255;-0.9310;-0.1068;-74.939
206.230.469;-139.957;-67.002;-11.752;0.5037;-220.849
206.250.000;-139.042;-70.055;-15.110;0.9310;-326.770
206.269.531;-134.768;-72.192;-17.247;15.110;-412.851
206.289.063;-128.663;-73.107;-19.078;21.215;-499.237
206.308.594;-121.032;-73.718;-22.436;22.436;-519.689
206.328.125;-112.485;-74.023;-27.320;16.941;-440.934
206.347.656;-104.548;-72.802;-30.983;0.8089;-325.855
206.367.188;-97.527;-68.223;-31.288;0.2595;-210.775
206.386.719;-89.591;-60.592;-28.236;0.1984;-103.022
206.406.250;-82.570;-52.656;-23.046;0.6258;-74.939
206.425.781;-78.297;-48.077;-16.026;13.584;-231.227
206.445.313;-76.770;-47.161;-0.8394;21.520;-530.983
206.464.844;-78.907;-48.993;-0.3816;25.183;-802.350
206.484.375;-84.707;-53.266;-0.4426;21.825;-931.471
206.503.906;-87.759;-56.929;-0.8394;10.836;-908.272
206.523.438;-84.402;-58.761;-12.363;-0.3816;-764.499
206.542.969;-80.128;-59.982;-14.805;-18.162;-529.151
206.562.500;-77.686;-60.287;-16.331;-28.846;-263.584
206.582.031;-75.549;-60.287;-18.773;-35.562;-64.560
206.601.563;-69.750;-58.761;-23.046;-40.446;-0.1068
206.621.094;-57.234;-55.403;-28.236;-45.024;-64.866
206.640.625;-39.530;-49.298;-33.120;-50.214;-166.209
206.660.156;-23.046;-43.193;-36.172;-56.013;-188.187
206.679.688;-13.278;-39.530;-37.088;-63.034;-67.002
206.699.219;-11.752;-37.393;-36.477;-69.139;135.989
206.718.750;-16.331;-34.951;-33.730;-70.055;282.204
206.738.281;-23.962;-32.204;-27.625;-62.729;318.529
206.757.813;-34.035;-31.288;-19.383;-47.772;238.858
206.777.344;-46.245;-32.509;-10.836;-28.541;0.7173
206.796.875;-58.761;-35.256;-0.3816;-0.9005;-283.120
206.816.406;-70.665;-39.530;0.1068;0.6258;-480.922
206.835.938;-83.486;-46.551;0.3205;12.363;-533.730
206.855.469;-96.917;-55.403;0.0153;0.5952;-404.304
206.875.000;-112.179;-65.476;-0.9005;-11.447;-104.548
206.894.531;-127.137;-74.939;-21.825;-33.120;258.700
206.914.063;-138.736;-82.570;-33.425;-49.603;594.170
206.933.594;-146.673;-88.980;-41.667;-57.540;791.056
206.953.125;-150.641;-95.696;-46.245;-56.624;707.418
206.972.656;-149.420;-101.496;-46.856;-47.772;325.855
206.992.188;-145.147;-106.074;-44.414;-34.951;-168.651
207.011.719;-140.263;-109.127;-42.277;-24.573;-534.646
207.031.250;-133.852;-110.043;-41.667;-19.689;-693.376
207.050.781;-125.000;-109.432;-40.751;-18.162;-705.281
207.070.313;-114.927;-107.295;-38.309;-16.331;-633.547
207.089.844;-105.769;-103.632;-34.341;-11.142;-568.223
207.109.375;-99.054;-99.359;-28.541;-0.3510;-610.348
207.128.906;-96.306;-95.391;-21.825;0.2900;-732.448
207.148.438;-96.612;-92.338;-16.026;0.5037;-831.349
207.167.969;-97.833;-90.507;-12.973;0.1374;-882.326
207.187.500;-100.580;-89.286;-12.668;-0.6563;-870.421
207.207.031;-104.243;-86.844;-13.889;-17.247;-738.553
207.226.563;-106.685;-82.875;-14.194;-25.488;-512.057
207.246.094;-107.295;-78.907;-13.889;-29.151;-285.562
207.265.625;-108.822;-76.160;-14.499;-27.930;-119.200
207.285.156;-113.095;-75.549;-16.636;-24.573;-37.393
207.304.688;-117.979;-76.465;-19.689;-20.604;-31.593
207.324.219;-120.421;-78.602;-21.825;-17.552;-33.425
207.343.750;-120.116;-81.349;-22.741;-13.889;27.625
207.363.281;-118.590;-84.096;-21.215;-0.8394;138.736
207.382.813;-117.063;-85.317;-18.162;-0.2289;197.039
207.402.344;-115.537;-84.707;-15.720;0.3816;114.011
207.421.875;-112.179;-83.791;-14.194;0.9921;-90.812
207.441.406;-105.464;-82.570;-12.668;13.584;-312.424
207.460.938;-97.222;-81.044;-11.752;12.973;-456.807
207.480.469;-91.422;-79.212;-13.889;0.8089;-484.280
207.500.000;-90.201;-78.297;-19.078;0.0763;-375.000
207.519.531;-92.338;-79.212;-24.267;-0.6563;-144.231
207.539.063;-95.696;-81.044;-28.541;-14.805;130.189
207.558.594;-99.054;-83.486;-32.204;-24.267;366.148
207.578.125;-101.496;-85.928;-35.867;-32.509;536.783
207.597.656;-103.938;-87.759;-38.919;-36.477;648.810
207.617.188;-107.601;-89.286;-39.530;-34.341;691.239
207.636.719;-110.043;-90.201;-36.477;-26.099;659.493
207.656.250;-110.958;-90.507;-31.899;-12.668;567.308
207.675.781;-109.127;-90.201;-26.099;0.4426;411.630
207.695.313;-102.717;-88.065;-18.468;24.267;201.007
207.714.844;-94.475;-85.012;-12.057;41.361;-43.803
207.734.375;-87.454;-83.181;-0.8700;50.824;-291.667
207.753.906;-79.518;-81.960;-0.7784;54.487;-480.922
207.773.438;-69.444;-80.739;-0.7173;56.013;-570.360
207.792.969;-60.287;-79.823;-0.7784;55.403;-565.781
207.812.500;-55.708;-80.433;-10.836;51.740;-521.215
207.832.031;-56.929;-80.739;-15.110;46.551;-474.512
207.851.563;-61.203;-81.349;-19.078;41.056;-389.347
207.871.094;-66.392;-83.181;-22.741;34.646;-239.774
207.890.625;-71.886;-85.317;-25.488;27.015;-60.287
207.910.156;-76.160;-85.623;-27.320;18.468;117.063
207.929.688;-79.518;-82.875;-27.930;11.142;269.383
207.949.219;-81.654;-78.297;-28.236;0.6563;343.254
207.968.750;-80.433;-74.023;-27.930;0.5342;320.360
207.988.281;-75.549;-69.750;-26.099;0.6868;257.784
208.007.813;-69.139;-65.171;-23.046;10.226;180.250
208.027.344;-62.424;-60.287;-19.078;14.805;72.497
208.046.875;-55.403;-54.487;-14.499;20.299;-49.298
208.066.406;-49.298;-48.993;-11.142;24.267;-173.535
208.085.938;-45.330;-44.719;-0.9921;25.488;-291.056
208.105.469;-42.582;-41.667;-0.9310;25.183;-382.326
208.125.000;-39.835;-39.225;-0.7173;27.320;-455.586
208.144.531;-37.088;-36.477;-0.3205;31.899;-533.730
208.164.063;-35.256;-34.035;-0.0763;35.867;-610.043
208.183.594;-34.341;-32.509;-0.1984;35.867;-668.346
208.203.125;-35.256;-32.814;-0.5342;30.372;-701.923
208.222.656;-40.751;-36.477;-0.9921;19.383;-660.409
208.242.188;-51.129;-41.056;-13.278;0.6563;-468.407
208.261.719;-63.339;-44.719;-12.973;-0.2900;-152.778
208.281.250;-75.855;-48.077;-0.9310;-0.6868;129.579
208.300.781;-84.707;-50.519;-0.3510;-0.5647;252.595
208.320.313;-85.928;-50.824;0.2289;-0.2289;249.542
208.339.844;-83.181;-48.687;0.8089;0.1374;207.723
208.359.375;-80.433;-46.245;12.363;0.5037;133.547
208.378.906;-78.602;-43.498;13.584;0.6868;29.762
208.398.438;-77.991;-41.361;11.447;0.4731;-53.877
208.417.969;-77.686;-40.446;0.7173;-0.0153;-96.612
208.437.500;-77.686;-40.140;0.3205;-0.5952;-93.254
208.457.031;-77.991;-40.751;0.0153;-12.973;-31.593
208.476.563;-78.297;-42.277;-0.3816;-21.825;57.540
208.496.094;-77.381;-44.109;-0.6563;-29.762;132.631
208.515.625;-75.244;-45.024;-0.7173;-32.509;202.534
208.535.156;-74.023;-44.414;-0.5037;-27.625;258.089
208.554.688;-74.023;-43.803;-0.1679;-18.773;262.057
208.574.219;-74.939;-44.109;0.1374;-11.447;224.817
208.593.750;-77.076;-45.024;0.4731;-0.5952;180.556
208.613.281;-82.265;-45.024;0.7479;-0.1679;170.177
208.632.813;-88.675;-43.193;0.9615;0.2595;200.397
208.652.344;-93.864;-39.835;11.752;0.6258;217.491
208.671.875;-96.306;-37.088;13.889;0.6563;173.840
208.691.406;-95.391;-35.256;15.110;0.3510;85.623
208.710.938;-91.728;-34.035;15.415;-0.0458;-21.520
208.730.469;-87.454;-32.509;14.499;-0.4426;-144.841
208.750.000;-86.538;-32.509;11.447;-0.9005;-264.194
208.769.531;-89.896;-36.172;0.5952;-16.026;-378.663
208.789.063;-96.917;-41.972;-0.0458;-22.436;-483.974
208.808.594;-105.464;-47.772;-0.6258;-25.183;-535.867
208.828.125;-113.095;-52.350;-0.9921;-26.404;-506.258
208.847.656;-117.979;-54.792;-12.973;-28.846;-432.082
208.867.188;-121.642;-55.098;-14.194;-32.204;-379.579
208.886.719;-125.000;-53.571;-14.194;-34.951;-361.569
208.906.250;-127.442;-50.519;-12.973;-37.393;-329.518
208.925.781;-128.053;-46.856;-12.668;-40.446;-223.596
208.945.313;-127.442;-42.888;-12.057;-40.751;-13.584
208.964.844;-126.832;-38.614;-0.9921;-35.867;259.310
208.984.375;-124.084;-34.341;-0.7479;-28.846;531.593
209.003.906;-115.537;-30.678;-0.6258;-25.183;751.374
209.023.438;-103.022;-27.625;-0.6258;-26.099;829.518
209.042.969;-91.117;-26.099;-0.7173;-28.846;686.966
209.062.500;-82.265;-26.099;-0.9310;-30.983;374.084
209.082.031;-74.634;-26.709;-11.142;-31.593;80.433
209.101.563;-64.560;-25.794;-10.836;-28.541;-63.339
209.121.094;-52.350;-23.046;-0.8394;-21.520;-94.170
209.140.625;-39.225;-18.468;-0.5647;-15.110;-118.590
209.160.156;-23.657;-12.973;-0.3205;-11.752;-208.944
209.179.688;-0.5647;-0.6868;-0.0153;-12.363;-321.581
209.199.219;0.8089;-0.2289;0.2289;-16.331;-357.295
209.218.750;11.142;-0.1984;0.2900;-22.436;-275.488
209.238.281;0.1374;-0.5952;0.1984;-27.930;-115.842
209.257.813;-14.805;-11.447;-0.0458;-33.120;28.236
209.277.344;-30.067;-16.636;-0.3510;-38.309;91.728
209.296.875;-40.751;-19.994;-0.5952;-42.888;78.907
209.316.406;-46.551;-20.910;-0.6563;-46.245;31.288
209.335.938;-48.382;-21.520;-0.5342;-47.772;0.6258
209.355.469;-48.382;-22.741;-0.3205;-48.382;0.0153
209.375.000;-49.298;-23.352;-0.1068;-48.382;-49.603
209.394.531;-52.961;-24.573;-0.0153;-50.214;-107.295
209.414.063;-55.403;-25.794;0.0458;-53.877;-76.465
209.433.594;-51.435;-25.488;0.4426;-56.624;65.781
209.453.125;-41.667;-23.046;10.226;-56.013;269.689
209.472.656;-29.762;-19.994;15.110;-51.740;406.746
209.492.188;-16.026;-18.468;18.468;-45.330;371.337
209.511.719;-0.1068;-19.078;19.383;-38.614;224.206
209.531.250;10.226;-21.215;16.636;-33.120;69.444
209.550.781;14.194;-23.962;12.668;-28.541;-39.530
209.570.313;12.668;-26.404;0.9921;-23.352;-67.613
209.589.844;0.9921;-27.930;0.9005;-18.773;0.6563
209.609.375;0.8700;-28.846;0.9921;-17.552;163.462
209.628.906;0.7479;-28.236;12.363;-17.552;347.527
209.648.438;0.4731;-26.404;17.552;-14.499;519.078
209.667.969;0.1984;-23.657;25.488;-0.8394;617.369
209.687.500;-0.0763;-21.825;33.730;-0.2900;585.012
209.707.031;-0.4121;-21.520;39.225;-0.0153;441.239
209.726.563;-0.7784;-22.436;42.277;0.0458;240.079
209.746.094;-11.142;-24.267;44.719;0.4121;25.794
209.765.625;-11.752;-25.488;47.466;11.142;-169.567
209.785.156;-0.6868;-24.878;50.824;20.910;-323.107
209.804.688;0.2900;-22.436;52.045;29.762;-402.167
209.824.219;14.499;-19.078;48.993;34.341;-366.758
209.843.750;26.709;-15.720;41.972;33.120;-209.554
209.863.281;39.530;-12.057;34.035;27.930;33.120
209.882.813;49.298;-0.7479;26.099;21.215;312.729
209.902.344;52.961;-0.2900;18.773;13.889;610.653
209.921.875;50.519;0.0763;12.973;0.5952;856.990
209.941.406;45.024;0.3510;0.9921;-0.0153;923.230
209.960.938;39.530;0.5342;10.836;-0.3205;800.824
209.980.469;36.783;0.6258;13.889;-0.4121;612.485
210.000.000;37.698;0.7173;18.468;-0.2900;461.996
210.019.531;40.751;0.8089;24.878;0.0153;342.949
210.039.063;45.330;0.9615;32.204;0.2289;226.648
210.058.594;50.519;11.752;38.614;0.5037;149.725
210.078.125;55.708;13.278;41.361;0.8394;136.905
210.097.656;59.371;13.278;40.140;0.9310;192.155
210.117.188;59.676;10.531;34.951;0.7479;317.918
210.136.719;56.319;0.5342;27.625;0.3205;465.354
210.156.250;50.824;0.0153;19.383;-0.1984;597.833
210.175.781;45.635;-0.3205;12.973;-0.5342;703.755
210.195.313;41.056;-0.5647;0.9921;-0.4426;744.963
210.214.844;36.172;-0.7784;0.8700;-0.0153;730.311
210.234.375;31.288;-0.9310;10.226;0.6258;696.429
210.253.906;28.236;-0.9005;14.499;17.552;625.000
210.273.438;27.320;-0.7479;20.604;31.593;484.280
210.292.969;28.846;-0.6563;27.320;44.414;284.646
210.312.500;32.204;-0.5342;34.035;56.929;84.707
210.332.031;38.919;-0.4426;40.140;69.750;-46.245
210.351.563;47.161;-0.2900;44.109;79.823;-109.432
210.371.094;53.571;0.0153;44.719;85.623;-143.620
210.390.625;57.540;0.4731;43.193;87.149;-147.894
210.410.156;62.118;10.836;42.277;85.012;-138.431
210.429.688;67.918;16.636;43.498;82.875;-161.630
210.449.219;72.497;22.436;47.161;85.928;-214.133
210.468.750;74.328;27.320;53.266;94.475;-260.531
210.488.281;74.634;29.762;57.845;99.359;-278.541
210.507.813;74.023;28.236;56.929;93.254;-266.636
210.527.344;71.886;23.352;52.350;78.907;-229.701
210.546.875;67.308;16.941;46.856;59.982;-161.630
210.566.406;59.982;10.226;41.056;39.835;-48.687
210.585.938;52.045;0.4426;34.035;20.604;103.022
210.605.469;44.719;-0.0763;26.404;0.2289;254.426
210.625.000;40.751;-0.5952;17.247;-13.889;346.306
210.644.531;43.803;-11.142;0.6868;-27.625;372.558
210.664.063;50.824;-15.415;-0.1679;-37.393;368.590
210.683.594;56.929;-16.331;-0.6868;-41.667;330.128
210.703.125;60.592;-13.584;-0.7784;-40.751;274.267
210.722.656;63.645;-0.7173;-0.5037;-36.172;255.647
210.742.188;69.444;0.3205;0.1984;-27.015;299.298
210.761.719;79.518;18.773;12.363;-16.331;394.536
210.781.250;94.170;36.783;23.046;-0.6868;487.332
210.800.781;110.958;53.877;32.814;-0.0458;506.563
210.820.313;123.474;66.087;40.140;0.1679;433.913
210.839.844;130.800;71.581;43.803;0.1068;304.792
210.859.375;139.042;69.750;43.498;-0.0153;141.484
210.878.906;142.399;63.645;41.361;-0.1679;-29.151
210.898.438;133.242;56.624;38.614;-0.2595;-137.515
210.917.969;113.706;48.687;36.783;-0.2900;-127.747
210.937.500;91.117;40.751;35.867;-0.1984;-0.4426
210.957.031;70.360;34.341;37.393;0.1068;186.966
210.976.563;53.877;29.762;40.140;0.6563;402.473
210.996.094;39.530;26.404;43.193;12.057;612.790
211.015.625;27.320;23.962;46.856;17.552;778.541
211.035.156;18.468;22.741;51.129;23.046;852.717
211.054.688;16.026;23.046;55.403;26.709;835.012
211.074.219;34.035;23.962;57.540;27.015;780.067
211.093.750;72.802;23.962;57.845;24.878;742.216
211.113.281;100.275;23.046;57.540;21.520;724.206
211.132.813;100.275;22.741;57.540;19.383;684.829
211.152.344;88.980;23.046;58.150;19.689;592.033
211.171.875;77.991;23.046;57.234;20.604;466.880
211.191.406;68.223;22.741;54.182;21.215;360.043
211.210.938;60.897;22.741;49.908;20.299;292.277
211.230.469;55.403;23.046;47.161;18.773;264.499
211.250.000;50.519;23.352;45.940;17.247;295.330
211.269.531;45.940;22.131;45.024;14.194;394.536
211.289.063;43.498;19.689;42.888;0.8089;524.267
211.308.594;48.077;16.941;40.446;0.0763;635.989
211.328.125;58.455;14.805;38.919;-0.5037;706.197
211.347.656;68.223;12.668;38.309;-0.8089;701.923
211.367.188;74.634;0.9615;38.004;-0.5952;592.338
211.386.719;80.128;0.5342;38.614;0.0153;426.282
211.406.250;85.012;0.0153;40.446;0.6868;288.614
211.425.781;88.065;-0.4731;41.056;11.447;202.228
211.445.313;89.591;-0.8700;39.530;10.836;195.818
211.464.844;90.201;-10.531;37.698;0.8089;320.971
211.484.375;89.896;-10.226;37.393;0.7479;555.708
211.503.906;90.201;-0.9615;38.614;0.8089;806.013
211.523.438;92.033;-0.8089;40.140;0.8089;963.217
211.542.969;96.917;-0.5647;43.498;0.7479;967.796
211.562.500;104.853;-0.2595;48.077;0.6258;836.233
211.582.031;114.316;0.0153;52.045;0.4121;624.389
211.601.563;122.863;0.1068;54.792;0.1984;381.105
211.621.094;128.968;0.0763;57.234;0.0153;145.757
211.640.625;132.937;0.0153;58.761;-0.1068;-47.772
211.660.156;135.073;-0.1068;59.066;-0.3510;-205.586
211.679.688;135.989;-0.1984;57.845;-0.8089;-331.349
211.699.219;136.294;-0.3816;56.013;-15.110;-395.452
211.718.750;138.126;-0.6258;53.266;-22.436;-381.410
211.738.281;141.789;-0.8700;48.687;-30.372;-296.245
211.757.813;146.368;-0.9921;44.414;-37.698;-157.967
211.777.344;150.946;-0.9310;42.277;-44.414;0.2900
211.796.875;153.388;-0.7479;41.361;-49.603;147.894
211.816.406;151.252;-0.5342;40.751;-52.350;257.173
211.835.938;144.841;-0.3205;41.056;-52.656;335.928
211.855.469;137.515;-0.1068;41.056;-50.519;383.242
211.875.000;131.716;0.1068;40.751;-44.719;402.778
211.894.531;130.495;0.3205;41.056;-35.867;406.746
211.914.063;133.242;0.4731;42.888;-24.878;389.957
211.933.594;137.515;0.6258;45.635;-13.889;339.896
211.953.125;144.841;0.6868;46.856;-0.7479;277.930
211.972.656;167.430;0.6563;46.245;-0.7784;254.121
211.992.188;208.333;0.4426;44.109;-12.363;268.773
212.011.719;243.437;0.0763;42.888;-18.162;262.057
212.031.250;254.426;-0.1984;41.361;-22.741;206.807
212.050.781;242.521;-0.2595;41.056;-25.488;128.053
212.070.313;217.796;-0.1374;42.582;-26.099;26.099
212.089.844;193.071;0.1068;45.940;-24.573;-77.076
212.109.375;174.451;0.5037;51.740;-20.604;-93.864
212.128.906;157.051;10.836;59.982;-14.194;0.0458
212.148.438;137.821;16.636;69.750;-0.5952;158.883
212.167.969;121.032;21.825;80.433;0.4426;353.632
212.187.500;109.737;26.709;90.812;16.941;541.972
212.207.031;104.243;32.204;99.359;31.288;641.789
212.226.563;103.327;37.088;106.380;44.414;628.663
212.246.094;106.074;41.056;111.874;52.961;568.223
212.265.625;111.569;45.940;113.706;56.013;510.836
212.285.156;118.895;50.519;110.958;54.487;462.302
212.304.688;127.442;53.266;103.632;49.603;431.166
212.324.219;137.210;53.571;92.643;41.667;418.956
212.343.750;145.147;50.824;79.212;33.120;410.714
212.363.281;147.283;45.635;66.087;26.099;400.946
212.382.813;142.399;38.919;55.403;20.299;379.884
212.402.344;134.463;31.899;47.772;17.247;343.254
212.421.875;127.747;25.794;43.193;18.468;311.203
212.441.406;124.084;22.131;41.667;24.267;284.341
212.460.938;122.558;19.994;40.751;30.067;249.542
212.480.469;121.642;17.552;39.530;31.288;228.175
212.500.000;122.253;14.805;37.088;27.625;257.173
212.519.531;126.221;11.752;34.035;21.520;326.465
212.539.063;131.716;0.8700;31.288;14.805;394.231
212.558.594;132.631;0.6868;30.067;0.9310;429.335
212.578.125;128.663;0.6868;30.678;0.5037;410.409
212.597.656;123.168;0.9005;30.678;0.1374;338.065
212.617.188;120.116;11.752;28.541;-0.3205;249.542
212.636.719;120.116;14.805;24.878;-10.836;189.103
212.656.250;121.032;18.468;21.520;-19.689;156.136
212.675.781;121.032;21.520;19.383;-28.541;104.853
212.695.313;119.505;23.962;19.078;-35.562;22.436
212.714.844;117.063;26.709;18.773;-38.614;-52.045
212.734.375;115.537;30.067;17.857;-37.698;-86.844
212.753.906;114.621;34.035;17.247;-37.698;-66.087
212.773.438;113.095;38.309;17.247;-39.835;13.278
212.792.969;111.264;41.972;16.331;-43.193;126.832
212.812.500;107.601;43.498;14.194;-45.940;250.458
212.832.031;103.327;43.498;12.363;-48.382;382.631
212.851.563;100.580;42.888;11.752;-49.908;515.720
212.871.094;100.580;42.582;12.668;-48.993;614.316
212.890.625;102.106;43.803;14.805;-44.719;643.926
212.910.156;102.717;45.940;16.941;-38.309;612.179
212.929.688;102.717;47.466;16.941;-31.593;541.667
212.949.219;106.074;46.856;14.194;-28.541;468.712
212.968.750;118.284;44.414;0.9005;-32.509;467.491
212.988.281;139.347;41.361;0.1374;-44.414;562.424
213.007.813;163.462;39.225;-0.7784;-60.592;714.744
213.027.344;203.144;38.919;-16.941;-77.381;884.157
213.046.875;277.930;36.783;-23.962;-88.675;1.009.921
213.066.406;350.580;31.288;-27.015;-92.033;1.010.226
213.085.938;363.400;28.846;-25.794;-88.980;858.516
213.105.469;318.529;31.593;-21.215;-84.096;611.569
213.125.000;253.510;37.088;-15.415;-80.739;362.179
213.144.531;189.103;41.972;-0.9615;-78.297;149.115
213.164.063;129.579;44.109;-0.3205;-74.023;-36.477
213.183.594;75.549;43.193;0.2595;-66.697;-167.430
213.203.125;27.625;41.667;0.7479;-58.150;-207.418
213.222.656;-11.447;41.056;10.531;-51.435;-158.883
213.242.188;-39.835;40.446;11.142;-48.993;-47.772
213.261.719;-53.877;40.140;10.531;-51.740;102.106
213.281.250;-49.298;43.193;0.9310;-56.319;295.635
213.300.781;-24.573;50.214;0.8394;-60.287;522.741
213.320.313;15.720;60.287;0.8700;-62.118;729.701
213.339.844;61.203;71.276;0.9615;-59.982;856.990
213.359.375;95.391;79.212;10.836;-52.961;860.653
213.378.906;109.127;81.349;11.142;-43.498;737.027
213.398.438;103.632;77.381;0.9921;-35.867;555.403
213.417.969;85.928;69.139;0.8394;-30.678;397.589
213.437.500;64.560;60.897;0.6868;-27.625;286.477
213.457.031;45.940;53.266;0.6258;-27.320;210.470
213.476.563;33.425;45.635;0.4731;-29.762;164.377
213.496.094;26.709;38.004;0.0763;-34.646;162.241
213.515.625;25.488;30.678;-0.3510;-42.888;217.796
213.535.156;26.709;23.962;-0.7173;-52.656;324.328
213.554.688;27.015;18.162;-0.8394;-62.118;437.576
213.574.219;27.015;14.805;-0.8089;-69.139;500.763
213.593.750;27.930;14.194;-0.6258;-72.497;507.479
213.613.281;30.678;16.026;-0.4121;-73.413;496.184
213.632.813;31.899;18.773;-0.1374;-72.192;507.173
213.652.344;28.236;21.825;0.1984;-69.139;518.773
213.671.875;20.910;25.794;0.6563;-64.866;470.543
213.691.406;10.531;30.067;12.057;-60.287;374.695
213.710.938;-0.1679;32.509;18.162;-57.234;303.266
213.730.469;-13.889;31.593;23.352;-56.319;296.245
213.750.000;-20.299;28.541;25.488;-57.845;342.033
213.769.531;-17.857;26.709;24.878;-61.203;391.178
213.789.063;-0.8700;27.015;22.741;-64.560;406.746
213.808.594;0.2900;29.457;20.604;-66.392;394.841
213.828.125;14.194;33.730;18.468;-66.392;376.221
213.847.656;23.962;38.004;16.636;-65.171;375.000
213.867.188;33.120;41.972;14.805;-62.729;393.926
213.886.719;42.277;45.330;13.278;-58.761;412.546
213.906.250;51.740;47.161;10.226;-54.792;436.050
213.925.781;64.866;44.719;0.4426;-53.266;471.459
213.945.313;84.096;38.614;-0.2900;-55.098;496.795
213.964.844;106.074;30.983;-10.836;-58.761;512.057
213.984.375;123.474;24.878;-17.857;-63.339;566.697
214.003.906;129.579;21.520;-23.046;-67.918;677.503
214.023.438;123.168;19.994;-25.183;-71.581;798.077
214.042.969;111.874;19.994;-23.657;-72.497;900.946
214.062.500;104.548;20.604;-18.773;-71.886;986.416
214.082.031;103.632;21.825;-12.057;-69.750;1.032.204
214.101.563;106.380;24.573;-0.4731;-67.002;1.005.037
214.121.094;108.516;27.930;0.1068;-63.645;880.189
214.140.625;107.906;30.983;0.5952;-60.592;677.808
214.160.156;114.316;32.509;0.9921;-58.150;462.607
214.179.688;148.810;31.899;12.668;-55.708;285.256
214.199.219;208.639;27.930;12.973;-53.571;168.956
214.218.750;260.836;20.604;0.9921;-50.519;109.432
214.238.281;283.730;13.278;0.5037;-46.245;101.801
214.257.813;273.046;10.836;0.1068;-41.361;139.347
214.277.344;232.143;14.194;-0.0153;-35.867;189.713
214.296.875;176.893;20.604;-0.0153;-29.151;234.280
214.316.406;121.337;27.625;-0.0153;-20.604;286.783
214.335.938;73.718;35.256;0.0153;-12.363;336.538
214.355.469;36.477;42.888;0.0153;-0.6563;360.653
214.375.000;0.9005;51.435;0.1374;-0.1984;372.863
214.394.531;-10.836;59.676;0.4121;0.2900;385.073
214.414.063;-21.825;66.697;0.6563;0.8394;400.336
214.433.594;-22.436;71.581;0.9310;12.363;448.260
214.453.125;-13.278;74.023;12.973;14.499;522.131
214.472.656;0.2595;74.328;17.552;15.415;557.234
214.492.188;22.131;72.192;21.825;15.110;539.835
214.511.719;42.277;68.529;25.488;14.805;511.752
214.531.250;58.455;63.645;29.457;14.805;511.447
214.550.781;67.918;58.150;33.425;13.584;581.044
214.570.313;70.360;53.877;37.393;11.447;726.038
214.589.844;67.918;51.435;41.361;0.8700;901.557
214.609.375;63.339;49.908;44.719;0.6258;1.031.593
214.628.906;58.455;48.382;45.024;0.3816;1.050.519
214.648.438;54.487;47.161;42.582;-0.0458;973.901
214.667.969;52.656;45.024;38.919;-0.7784;873.168
214.687.500;52.350;41.361;35.256;-17.552;816.087
214.707.031;52.045;36.783;31.899;-30.067;810.897
214.726.563;49.298;30.678;27.625;-45.024;790.446
214.746.094;41.361;25.183;23.962;-60.592;695.513
214.765.625;30.372;21.825;23.046;-73.718;539.225
214.785.156;18.162;21.520;24.267;-82.570;381.410
214.804.688;0.6563;23.962;24.878;-87.759;239.469
214.824.219;-0.1984;27.930;24.573;-90.201;105.769
214.843.750;-0.6563;32.204;23.046;-92.033;0.0153
214.863.281;-0.5952;36.172;20.910;-94.475;-60.592
214.882.813;0.0458;39.530;19.078;-97.527;-71.886
214.902.344;13.584;41.972;17.247;-99.054;-45.940
214.921.875;30.983;44.719;13.889;-96.917;-38.004
214.941.406;47.161;47.161;0.9921;-89.896;-74.634
214.960.938;57.234;49.603;0.6258;-79.518;-106.685
214.980.469;61.508;50.824;0.2900;-67.613;-92.338
215.000.000;62.118;50.214;0.0153;-56.624;-27.625
215.019.531;60.897;47.772;-0.4121;-48.687;68.834
215.039.063;59.066;43.498;-0.9615;-43.803;151.252
215.058.594;57.540;38.309;-14.194;-41.667;193.987
215.078.125;56.929;33.425;-16.941;-40.140;223.291
215.097.656;57.234;29.151;-18.468;-38.614;262.057
215.117.188;57.845;25.794;-20.299;-38.004;312.729
215.136.719;58.150;22.741;-22.741;-38.004;393.010
215.156.250;56.319;20.604;-25.183;-38.614;502.595
215.175.781;52.350;19.689;-27.625;-41.361;596.001
215.195.313;46.245;21.215;-29.457;-45.024;653.083
215.214.844;38.004;24.573;-30.678;-47.466;691.239
215.234.375;28.236;27.625;-30.983;-47.466;704.060
215.253.906;20.910;29.457;-31.288;-46.245;660.104
215.273.438;18.162;30.067;-32.509;-45.024;570.665
215.292.969;21.520;29.762;-34.951;-43.193;501.068
215.312.500;30.372;27.930;-36.477;-40.751;487.637
215.332.031;42.277;26.404;-37.698;-39.530;517.857
215.351.563;53.877;27.015;-39.225;-38.309;566.392
215.371.094;63.034;28.846;-40.446;-37.088;601.190
215.390.625;72.497;30.678;-40.751;-35.867;621.337
215.410.156;82.875;32.204;-39.530;-35.867;649.420
215.429.688;91.422;33.120;-37.393;-37.698;675.672
215.449.219;96.612;33.120;-35.256;-38.919;672.924
215.468.750;97.222;31.593;-33.730;-38.309;650.946
215.488.281;92.949;29.151;-33.120;-38.004;665.598
215.507.813;85.012;26.404;-33.730;-38.004;723.901
215.527.344;76.160;24.573;-34.341;-38.614;778.236
215.546.875;65.171;23.352;-33.425;-38.004;822.497
215.566.406;51.129;23.046;-29.762;-35.256;887.515
215.585.938;36.783;22.131;-23.962;-31.288;983.059
215.605.469;25.183;19.689;-17.552;-26.709;1.070.665
215.625.000;16.941;15.720;-12.973;-21.825;1.127.137
215.644.531;0.8394;12.363;-0.9310;-17.552;1.186.355
215.664.063;-0.1679;0.9615;-0.5342;-13.889;1.229.090
215.683.594;-10.836;0.7784;-0.1984;-11.447;1.179.029
215.703.125;-18.468;0.6563;-0.1068;-12.057;1.035.256
215.722.656;-25.488;0.4121;-0.2900;-16.026;870.726
215.742.188;-31.288;0.1068;-0.7173;-22.131;759.615
215.761.719;-37.393;-0.1984;-13.278;-29.151;736.416
215.781.250;-47.466;-0.5037;-19.689;-38.614;752.289
215.800.781;-62.118;-0.7173;-25.183;-50.214;704.060
215.820.313;-80.739;-0.9310;-28.846;-60.592;560.287
215.839.844;-95.085;-12.057;-28.846;-68.223;394.841
215.859.375;-84.707;-16.636;-26.404;-74.939;251.068
215.878.906;-53.877;-21.825;-24.878;-81.654;105.464
215.898.438;-42.582;-25.794;-24.573;-88.675;-0.6563
215.917.969;-63.034;-28.541;-24.878;-95.696;-28.846
215.937.500;-95.391;-30.678;-25.488;-102.411;14.805
215.957.031;-130.800;-33.120;-26.099;-109.127;62.424
215.976.563;-168.040;-37.088;-27.625;-114.621;87.759
215.996.094;-202.839;-40.751;-29.151;-117.979;118.590
216.015.625;-218.407;-41.056;-30.678;-119.505;194.902
216.035.156;-190.934;-39.530;-32.204;-118.895;305.708
216.054.688;-146.062;-37.088;-33.730;-116.148;382.021
216.074.219;-135.989;-35.256;-35.867;-111.874;374.695
216.093.750;-167.125;-35.256;-38.919;-106.380;334.707
216.113.281;-214.744;-40.140;-43.498;-102.411;317.002
216.132.813;-260.226;-49.298;-49.908;-101.190;300.214
216.152.344;-296.551;-60.287;-57.234;-102.106;283.120
216.171.875;-322.497;-70.971;-62.729;-102.717;281.593
216.191.406;-344.170;-80.433;-63.950;-102.717;269.078
216.210.938;-369.811;-88.980;-62.424;-101.801;229.701
216.230.469;-399.115;-99.664;-61.508;-100.275;191.545
216.250.000;-415.904;-115.232;-63.645;-99.969;194.597
216.269.531;-406.746;-137.210;-69.750;-101.801;245.879
216.289.063;-379.579;-165.598;-79.212;-105.769;297.772
216.308.594;-326.465;-196.734;-89.286;-110.653;321.886
216.328.125;-226.648;-224.512;-98.138;-116.453;339.896
216.347.656;-113.095;-242.216;-104.548;-122.558;388.736
216.367.188;-45.635;-247.100;-107.906;-128.663;486.416
216.386.719;-45.024;-244.658;-109.127;-134.158;592.338
216.406.250;-109.737;-240.690;-110.348;-139.347;641.178
216.425.781;-233.364;-232.143;-111.264;-146.062;609.737
216.445.313;-389.042;-212.912;-110.958;-154.609;531.593
216.464.844;-547.772;-183.303;-107.906;-162.851;457.112
216.484.375;-684.829;-146.673;-103.022;-168.346;407.662
216.503.906;-778.541;-107.601;-97.222;-169.567;370.421
216.523.438;-822.497;-70.971;-91.117;-166.819;318.529
216.542.969;-823.107;-44.109;-86.233;-160.714;265.110
216.562.500;-794.109;-29.762;-84.707;-153.999;250.763
216.582.031;-751.068;-25.794;-87.454;-147.589;279.762
216.601.563;-701.618;-28.236;-92.949;-140.873;318.223
216.621.094;-645.757;-35.256;-100.580;-134.158;337.149
216.640.625;-590.507;-45.635;-110.043;-127.137;362.790
216.660.156;-545.635;-57.540;-120.116;-120.726;426.282
216.679.688;-517.857;-67.613;-127.747;-114.927;524.573
216.699.219;-506.258;-73.718;-132.021;-108.822;631.716
216.718.750;-501.679;-76.160;-132.937;-101.496;673.535
216.738.281;-495.879;-76.160;-131.716;-95.696;621.642
216.757.813;-488.858;-73.413;-129.274;-92.033;525.183
216.777.344;-483.669;-68.223;-126.221;-87.759;410.104
216.796.875;-480.617;-60.592;-122.558;-81.960;289.225
216.816.406;-476.038;-52.656;-119.811;-77.991;212.912
216.835.938;-467.491;-45.330;-120.116;-79.518;212.912
216.855.469;-453.144;-39.225;-123.168;-85.623;259.310
216.875.000;-435.440;-33.425;-127.442;-94.170;332.875
216.894.531;-418.040;-27.320;-131.716;-103.327;434.829
216.914.063;-404.915;-21.215;-133.547;-111.874;476.954
216.933.594;-396.368;-16.331;-133.242;-118.284;362.485
216.953.125;-389.042;-12.973;-132.937;-123.168;160.714
216.972.656;-380.494;-10.836;-132.021;-125.916;10.226
216.992.188;-367.979;-0.9615;-130.800;-126.832;-56.624
217.011.719;-351.496;-0.8700;-129.274;-125.611;-102.717
217.031.250;-329.518;-0.8089;-126.526;-123.779;-158.883
217.050.781;-303.877;-0.7173;-121.947;-120.726;-191.239
217.070.313;-279.457;-0.5342;-115.232;-114.927;-176.893
217.089.844;-259.005;-0.2289;-107.906;-106.074;-128.663
217.109.375;-243.132;0.1068;-99.969;-96.917;-79.212
217.128.906;-232.448;0.5037;-92.949;-90.201;-43.498
217.148.438;-225.427;10.226;-87.759;-86.844;-22.436
217.167.969;-219.322;16.636;-85.012;-88.370;-22.131
217.187.500;-211.691;23.352;-85.012;-94.475;-14.805
217.207.031;-203.144;29.457;-86.844;-103.327;33.120
217.226.563;-193.071;35.256;-88.980;-113.400;117.979
217.246.094;-182.082;40.446;-89.286;-121.947;230.006
217.265.625;-170.177;45.024;-88.370;-126.526;350.580
217.285.156;-158.883;49.603;-86.538;-127.137;417.430
217.304.688;-150.641;52.961;-84.096;-124.389;374.084
217.324.219;-147.589;54.487;-82.265;-121.337;243.132
217.343.750;-147.894;54.182;-82.265;-119.811;100.580
217.363.281;-146.978;53.571;-83.791;-119.200;-14.805
217.382.813;-143.315;52.350;-86.233;-117.674;-108.211
217.402.344;-136.600;49.908;-87.759;-113.400;-183.303
217.421.875;-127.747;46.551;-88.065;-106.380;-241.606
217.441.406;-118.590;42.582;-87.149;-98.748;-269.994
217.460.938;-111.264;38.919;-84.402;-93.254;-263.584
217.480.469;-107.601;36.783;-79.212;-88.980;-265.110
217.500.000;-108.822;35.256;-72.192;-85.623;-300.214
217.519.531;-116.758;34.951;-63.645;-82.265;-299.908
217.539.063;-130.189;36.172;-53.877;-76.160;-204.060
217.558.594;-145.757;39.530;-43.803;-67.308;-61.203
217.578.125;-158.272;44.414;-34.646;-57.845;68.223
217.597.656;-164.377;50.214;-26.099;-49.298;198.565
217.617.188;-163.462;56.319;-19.994;-41.972;355.769
217.636.719;-157.967;62.424;-16.331;-36.783;507.479
217.656.250;-149.420;67.613;-15.415;-33.730;601.190
217.675.781;-140.873;70.971;-16.636;-30.983;639.957
217.695.313;-135.684;71.581;-19.383;-29.151;661.325
217.714.844;-135.684;70.055;-23.046;-28.846;681.471
217.734.375;-139.347;67.613;-27.320;-29.457;683.608
217.753.906;-143.926;65.476;-32.204;-30.067;646.062
217.773.438;-148.199;63.950;-36.783;-30.372;562.729
217.792.969;-151.252;61.813;-41.361;-31.899;436.661
217.812.500;-152.473;58.150;-46.245;-36.172;285.562
217.832.031;-152.473;53.571;-50.214;-42.277;138.736
217.851.563;-150.946;48.382;-53.266;-49.603;35.867
217.871.094;-147.894;42.888;-55.708;-57.234;0.7479
217.890.625;-145.757;37.088;-58.761;-65.476;53.266
217.910.156;-146.368;31.288;-61.203;-72.497;142.094
217.929.688;-148.504;26.404;-62.424;-75.855;240.079
217.949.219;-151.557;23.352;-61.508;-77.991;341.422
217.968.750;-154.304;21.825;-59.371;-82.875;435.745
217.988.281;-156.441;21.215;-57.234;-91.117;474.817
218.007.813;-157.357;20.910;-56.319;-101.801;445.208
218.027.344;-157.357;21.215;-57.234;-111.874;407.967
218.046.875;-156.441;20.910;-59.371;-121.032;400.641
218.066.406;-153.694;21.215;-60.592;-128.358;418.040
218.085.938;-148.199;23.657;-59.982;-131.105;465.965
218.105.469;-141.178;28.236;-58.761;-128.968;499.542
218.125.000;-135.684;33.730;-58.761;-124.389;429.029
218.144.531;-133.547;40.140;-60.897;-123.474;295.940
218.164.063;-134.768;46.245;-64.560;-127.442;232.143
218.183.594;-136.294;50.824;-68.529;-135.073;248.321
218.203.125;-137.210;54.182;-72.802;-143.926;285.867
218.222.656;-137.515;56.319;-75.244;-150.031;303.571
218.242.188;-136.600;57.540;-74.328;-149.725;267.552
218.261.719;-134.158;57.845;-72.497;-141.789;215.049
218.281.250;-129.884;56.929;-70.360;-130.189;184.219
218.300.781;-124.389;55.708;-68.223;-118.895;138.126
218.320.313;-119.505;54.182;-65.781;-110.348;85.623
218.339.844;-116.148;51.129;-63.950;-106.074;71.276
218.359.375;-115.232;47.161;-63.034;-104.243;107.601
218.378.906;-116.453;43.803;-61.813;-102.106;188.187
218.398.438;-118.895;41.667;-59.371;-99.664;273.962
218.417.969;-121.032;40.751;-54.487;-97.833;318.834
218.437.500;-120.421;41.667;-48.382;-97.833;326.160
218.457.031;-114.011;45.940;-41.361;-99.359;326.160
218.476.563;-100.580;54.792;-34.341;-100.885;327.076
218.496.094;-82.875;66.392;-27.625;-100.580;343.559
218.515.625;-67.002;76.465;-22.131;-97.527;397.283
218.535.156;-59.676;81.960;-18.162;-91.422;473.901
218.554.688;-65.476;82.265;-15.415;-82.875;532.814
218.574.219;-81.960;77.381;-12.668;-74.023;532.509
218.593.750;-101.190;68.834;-0.9921;-67.918;453.755
218.613.281;-115.842;58.150;-0.8700;-66.697;313.034
218.632.813;-125.611;48.993;-0.9005;-70.971;162.546
218.652.344;-133.547;42.888;-11.142;-78.602;77.381
218.671.875;-143.926;39.530;-14.805;-86.844;90.812
218.691.406;-158.272;37.393;-19.078;-94.170;182.387
218.710.938;-173.230;35.256;-23.962;-99.664;318.834
218.730.469;-184.219;33.425;-29.762;-103.938;462.302
218.750.000;-189.408;33.425;-35.562;-105.769;605.464
218.769.531;-190.324;34.951;-39.835;-106.380;753.510
218.789.063;-187.882;38.004;-42.888;-107.906;876.832
218.808.594;-182.692;42.582;-43.498;-110.653;904.304
218.828.125;-175.977;47.772;-40.751;-112.790;790.446
218.847.656;-169.567;51.435;-35.867;-112.485;588.065
218.867.188;-164.683;51.740;-30.372;-110.653;378.053
218.886.719;-161.325;49.298;-25.183;-110.348;213.828
218.906.250;-158.272;45.635;-20.910;-112.790;132.021
218.925.781;-154.915;42.888;-17.247;-116.758;120.421
218.945.313;-150.946;41.056;-14.499;-120.116;122.558
218.964.844;-146.062;39.835;-11.752;-120.421;100.580
218.984.375;-141.484;39.530;-10.226;-117.369;51.740
219.003.906;-138.126;39.530;-10.531;-113.400;0.0153
219.023.438;-138.431;39.530;-11.447;-108.516;-0.7784
219.042.969;-141.484;38.614;-11.752;-100.275;38.309
219.062.500;-146.368;36.477;-11.752;-89.286;100.580
219.082.031;-150.641;33.425;-12.363;-79.518;127.137
219.101.563;-153.694;30.067;-14.805;-75.549;88.980
219.121.094;-155.220;27.015;-18.468;-77.686;19.078
219.140.625;-155.525;25.488;-21.215;-80.433;-49.603
219.160.156;-154.609;27.320;-23.352;-80.128;-143.926
219.179.688;-153.694;31.288;-24.267;-78.297;-225.733
219.199.219;-152.778;35.562;-22.741;-77.076;-180.861
219.218.750;-151.252;40.140;-18.468;-74.939;0.0763
219.238.281;-150.641;44.414;-11.752;-69.139;228.480
219.257.813;-152.167;47.161;-0.4731;-62.424;431.166
219.277.344;-157.051;47.161;-0.0763;-59.676;576.770
219.296.875;-164.988;44.109;-0.0153;-61.813;630.189
219.316.406;-173.840;40.140;-0.0458;-65.781;605.769
219.335.938;-180.556;37.393;-0.0458;-70.665;573.413
219.355.469;-183.303;36.477;0.0763;-76.770;545.635
219.375.000;-182.998;36.783;0.2595;-82.570;505.952
219.394.531;-180.861;37.698;0.5342;-85.012;456.197
219.414.063;-182.082;38.309;0.8089;-83.486;395.757
219.433.594;-187.882;38.004;10.226;-80.739;345.696
219.453.125;-196.123;37.698;12.057;-77.381;325.855
219.472.656;-203.449;38.614;14.499;-72.497;334.402
219.492.188;-209.249;41.056;17.552;-64.866;362.485
219.511.719;-212.912;44.414;20.910;-53.877;393.010
219.531.250;-216.270;48.077;23.046;-39.835;393.315
219.550.781;-220.238;51.435;22.741;-24.878;334.707
219.570.313;-224.512;54.792;19.689;-11.142;265.110
219.589.844;-226.954;56.319;14.194;0.0458;245.879
219.609.375;-228.175;56.319;0.6258;0.8700;269.383
219.628.906;-229.396;55.098;-0.3510;12.363;321.886
219.648.438;-230.922;52.656;-14.499;11.447;399.725
219.667.969;-231.838;50.214;-25.183;0.7173;432.998
219.687.500;-231.227;47.466;-34.035;0.2900;360.043
219.707.031;-229.090;44.109;-39.225;0.1374;232.448
219.726.563;-225.122;40.140;-40.751;0.1679;115.537
219.746.094;-220.849;35.867;-39.225;0.2595;38.919
219.765.625;-218.101;32.814;-34.951;0.1068;37.698
219.785.156;-217.491;30.067;-27.625;-0.1068;128.053
219.804.688;-218.407;26.404;-17.857;0.0458;243.437
219.824.219;-220.543;21.520;-0.7784;0.6563;268.468
219.843.750;-225.427;16.636;0.0153;13.278;196.734
219.863.281;-232.753;12.363;0.4731;18.162;144.231
219.882.813;-240.995;10.531;0.8700;20.910;192.766
219.902.344;-247.711;10.531;14.194;24.573;316.392
219.921.875;-252.900;12.057;20.299;27.930;421.398
219.941.406;-256.258;14.499;22.436;26.709;449.481
219.960.938;-258.394;17.247;18.162;20.604;401.252
219.980.469;-259.005;20.299;0.9310;13.584;295.635
220.000.000;-256.868;24.573;-0.1984;0.6563;172.314
220.019.531;-251.374;30.067;-15.415;-0.2289;45.330
220.039.063;-242.827;36.477;-28.541;-13.278;-84.402
220.058.594;-233.974;42.277;-40.140;-26.099;-185.440
220.078.125;-226.954;46.856;-50.519;-41.056;-236.416
220.097.656;-222.680;50.214;-58.761;-57.234;-250.763
220.117.188;-220.238;51.435;-63.645;-71.581;-266.331
220.136.719;-219.933;51.129;-66.392;-84.402;-288.614
220.156.250;-221.154;48.687;-67.002;-96.917;-269.078
220.175.781;-223.291;45.635;-64.560;-107.601;-202.228
220.195.313;-224.206;42.582;-59.371;-113.706;-123.168
220.214.844;-222.680;40.140;-53.266;-116.453;-26.709
220.234.375;-219.322;38.614;-48.077;-120.116;97.527
220.253.906;-216.575;37.088;-44.414;-126.832;226.038
220.273.438;-216.270;35.256;-42.277;-132.937;356.685
220.292.969;-219.628;32.204;-41.056;-135.989;493.437
220.312.500;-225.427;28.541;-39.225;-137.210;579.518
220.332.031;-230.922;25.183;-36.477;-137.821;559.982
220.351.563;-233.059;24.267;-30.983;-137.210;451.007
220.371.094;-233.364;27.015;-24.878;-135.379;314.255
220.390.625;-232.753;32.204;-20.604;-134.158;204.976
220.410.156;-230.617;38.614;-20.299;-133.242;145.147
220.429.688;-226.954;45.635;-22.436;-130.495;143.315
220.449.219;-221.764;52.350;-24.878;-122.863;202.534
220.468.750;-214.133;58.455;-27.320;-111.874;280.678
220.488.281;-204.670;63.950;-31.899;-103.022;291.361
220.507.813;-194.902;67.613;-40.140;-100.580;193.376
220.527.344;-185.440;70.665;-49.603;-102.411;55.098
220.546.875;-176.282;73.107;-58.455;-105.464;-23.352
220.566.406;-168.651;74.939;-66.087;-109.127;-12.363
220.585.938;-162.546;76.465;-70.665;-110.653;52.045
220.605.469;-155.830;79.212;-70.971;-106.074;125.916
220.625.000;-144.841;81.960;-67.613;-96.306;188.187
220.644.531;-129.884;83.181;-59.676;-84.096;231.532
220.664.063;-116.148;82.265;-50.214;-71.581;241.911
