Time;Fp2-F4;F4-C4;C4-P4;P4-O2;C4-A1
0.0000;88.370;19.383;-11.752;-0.7173;20.299
39.063;29.457;53.571;-0.6258;-30.372;-51.435
78.125;-35.867;94.780;-0.1374;-58.150;-136.600
117.188;-88.065;125.305;1,377777778;-77.991;-208.639
156.250;-135.073;140.568;1,802083333;-89.896;-253.510
195.313;-168.346;142.094;0,10625;-96.001;-263.278
234.375;-170.482;136.905;-0.1984;-96.001;-246.795
273.438;-147.283;132.021;-0.1984;-91.422;-228.785
312.500;-126.526;130.189;-0.0458;-86.538;-226.038
351.563;-127.747;129.274;0,10625;-84.707;-232.753
390.625;-141.789;126.832;-0.1374;-85.623;-233.669
429.688;-145.452;123.474;-0.2900;-85.928;-223.596
468.750;-132.326;121.337;-0.2900;-83.791;-213.217
507.813;-118.895;121.032;-0.1374;-81.044;-213.523
546.875;-120.116;121.337;-0.0763;-80.128;-220.849
585.938;-132.021;119.811;-0.1984;-80.739;-223.291
625.000;-136.600;117.063;-0.3205;-81.044;-215.965
664.063;-127.137;114.927;-0.3510;-79.518;-206.807
703.125;-115.232;114.011;-0.2595;-77.076;-205.281
742.188;-114.011;114.011;-0.1984;-75.855;-210.165
781.250;-122.558;112.790;-0.2595;-76.160;-212.607
820.313;-127.137;110.348;-0.3816;-76.465;-207.112
859.375;-120.726;108.211;-0.4121;-75.244;-199.481
898.438;-110.653;107.295;-0.3510;-73.107;-196.734
937.500;-108.211;106.990;-0.2900;-71.886;-200.092
976.563;-114.011;105.769;-0.3205;-71.886;-201.923
1.015.625;-118.284;103.632;-0.4121;-71.886;-198.260
1.054.688;-114.011;101.801;-0.4426;-70.971;-191.545
1.093.750;-105.769;100.580;-0.4121;-69.139;-188.492
1.132.813;-102.411;99.969;-0.3816;-67.918;-190.324
1.171.875;-106.380;99.054;-0.3816;-67.613;-192.155
1.210.938;-110.043;97.222;-0.4731;-67.308;-189.408
1.250.000;-106.990;95.391;-0.5037;-66.697;-183.913
1.289.063;-100.275;94.170;-0.4731;-65.171;-180.556
1.328.125;-96.917;93.559;-0.4426;-63.950;-181.471
1.367.188;-99.359;92.643;-0.4731;-63.339;-182.692
1.406.250;-102.106;91.117;-0.5037;-63.339;-180.556
1.445.313;-100.275;89.286;-0.5647;-62.424;-175.977
1.484.375;-95.085;88.065;-0.5342;-61.203;-172.619
1.523.438;-91.422;87.149;-0.5037;-59.982;-172.619
1.562.500;-92.643;86.233;-0.5342;-59.371;-173.535
1.601.563;-94.780;84.707;-0.5647;-59.066;-171.703
1.640.625;-93.864;83.181;-0.5952;-58.455;-168.040
1.679.688;-89.591;81.960;-0.5952;-57.540;-164.988
1.718.750;-86.233;81.044;-0.5647;-56.319;-164.377
1.757.813;-86.538;80.128;-0.5952;-55.708;-164.683
1.796.875;-88.065;78.907;-0.6258;-55.403;-163.462
1.835.938;-87.454;77.381;-0.6563;-54.792;-160.104
1.875.000;-83.791;76.160;-0.6563;-53.877;-157.357
1.914.063;-80.739;75.244;-0.6258;-52.656;-156.136
1.953.125;-80.433;74.328;-0.6258;-52.045;-156.136
1.992.188;-81.654;73.107;-0.6563;-51.435;-155.220
2.031.250;-81.044;71.886;-0.6868;-51.129;-152.473
2.070.313;-78.297;70.665;-0.6868;-50.214;-149.725
2.109.375;-75.549;69.444;-0.6868;-49.298;-148.504
2.148.438;-74.939;68.834;-0.6868;-48.382;-147.894
2.187.500;-75.549;67.613;-0.7173;-48.077;-146.978
2.226.563;-75.244;66.392;-0.7173;-47.466;-144.841
2.265.625;-73.107;65.171;-0.7479;-46.551;-142.399
2.304.688;-70.360;64.255;-0.7479;-45.635;-140.873
2.343.750;-69.444;63.339;-0.7479;-45.024;-140.263
2.382.813;-69.750;62.118;-0.7479;-44.414;-139.347
2.421.875;-69.444;60.897;-0.7784;-43.803;-137.210
2.460.938;-67.613;59.982;-0.7784;-43.193;-135.073
2.500.000;-65.476;58.761;-0.7784;-42.277;-133.547
2.539.063;-64.255;58.150;-0.7784;-41.667;-132.631
2.578.125;-64.255;56.929;-0.7784;-41.056;-131.716
2.617.188;-63.950;56.013;-0.8089;-40.751;-129.884
2.656.250;-62.424;54.792;-0.8089;-39.835;-127.747
2.695.313;-60.287;53.877;-0.8089;-39.225;-126.221
2.734.375;-59.066;52.961;-0.8089;-38.614;-125.305
2.773.438;-58.761;52.045;-0.8394;-38.004;-124.389
2.812.500;-58.455;51.129;-0.8394;-37.393;-122.863
2.851.563;-57.234;49.908;-0.8394;-36.783;-120.726
2.890.625;-55.708;48.993;-0.8394;-36.172;-119.200
2.929.688;-54.487;48.077;-0.8394;-35.256;-118.284
2.968.750;-53.877;47.161;-0.8700;-34.951;-117.063
3.007.813;-53.571;46.245;-0.8700;-34.341;-115.842
3.046.875;-52.350;45.330;-0.8700;-33.730;-114.011
3.085.938;-50.824;44.414;-0.8700;-33.120;-112.485
3.125.000;-49.603;43.498;-0.8700;-32.509;-111.264
3.164.063;-48.993;42.582;-0.9005;-31.899;-110.348
3.203.125;-48.687;41.667;-0.9005;-31.288;-109.127
3.242.188;-47.772;40.751;-0.9005;-30.678;-107.295
3.281.250;-46.245;39.835;-0.9005;-30.067;-105.769
3.320.313;-45.024;38.919;-0.9005;-29.457;-104.548
3.359.375;-44.414;38.004;-0.9310;-28.846;-103.632
3.398.438;-43.803;37.393;-0.9310;-28.541;-102.411
3.437.500;-43.193;36.477;-0.9310;-27.930;-100.885
3.476.563;-41.972;35.562;-0.9310;-27.320;-99.359
3.515.625;-40.751;34.646;-0.9310;-26.709;-98.138
3.554.688;-40.140;33.730;-0.9310;-26.099;-97.222
3.593.750;-39.530;33.120;-0.9615;-25.794;-96.001
3.632.813;-38.614;32.204;-0.9615;-25.183;-94.475
3.671.875;-37.698;31.288;-0.9615;-24.573;-93.254
3.710.938;-36.477;30.678;-0.9615;-23.962;-92.033
3.750.000;-35.867;29.762;-0.9615;-23.657;-90.812
3.789.063;-35.256;28.846;-0.9615;-23.046;-89.896
3.828.125;-34.341;28.236;-0.9921;-22.436;-88.370
3.867.188;-33.425;27.320;-0.9921;-22.131;-87.149
3.906.250;-32.509;26.709;-0.9921;-21.520;-85.928
3.945.313;-31.593;25.794;-0.9921;-20.910;-85.012
3.984.375;-30.983;25.183;-0.9921;-20.604;-83.791
4.023.438;-30.372;24.267;-0.9921;-19.994;-82.570
4.062.500;-29.457;23.657;-0.9921;-19.383;-81.349
4.101.563;-28.541;22.741;-0.9921;-19.078;-80.128
4.140.625;-27.930;22.131;-0.9921;-18.468;-79.212
4.179.688;-27.015;21.215;-10.226;-18.162;-77.991
4.218.750;-26.404;20.604;-10.226;-17.552;-76.770
4.257.813;-25.794;19.994;-10.226;-17.247;-75.549
4.296.875;-24.878;19.078;-10.226;-16.636;-74.634
4.335.938;-23.962;18.468;-10.226;-16.026;-73.413
4.375.000;-23.352;17.857;-10.226;-15.720;-72.497
4.414.063;-22.741;16.941;-10.226;-15.110;-71.276
4.453.125;-22.131;16.331;-10.226;-14.805;-70.055
4.492.188;-21.215;15.720;-10.226;-14.194;-69.139
4.531.250;-20.604;15.110;-10.226;-13.889;-67.918
4.570.313;-19.994;14.499;-10.531;-13.584;-67.002
4.609.375;-19.078;13.584;-10.531;-12.973;-66.087
4.648.438;-18.468;12.973;-10.531;-12.668;-64.866
4.687.500;-17.857;12.363;-10.531;-12.057;-63.645
4.726.563;-16.941;11.752;-10.531;-11.752;-62.729
4.765.625;-16.331;11.142;-10.531;-11.447;-61.813
4.804.688;-15.720;10.531;-10.531;-10.836;-60.897
4.843.750;-15.110;6,889583333;-10.531;-10.531;-59.676
4.882.813;-14.499;6,465277778;-10.531;-0.9921;-58.761
4.921.875;-13.889;6,041666667;-10.531;-0.9615;-57.540
4.960.938;-13.278;5,617361111;-10.531;-0.9310;-56.624
5.000.000;-12.668;5,19375;-10.531;-0.9005;-55.708
5.039.063;-12.057;4,769444444;-10.531;-0.8394;-54.792
5.078.125;-11.447;4,345833333;-10.531;-0.8089;-53.877
5.117.188;-10.531;3,921527778;-10.531;-0.7784;-52.656
5.156.250;-0.9921;3,497916667;-10.531;-0.7173;-51.740
5.195.313;-0.9615;3,073611111;-10.531;-0.6868;-50.824
5.234.375;-0.9005;2,65;-10.531;-0.6563;-49.908
5.273.438;-0.8394;2,225694444;-10.836;-0.6258;-48.993
5.312.500;-0.7784;2,013888889;-10.836;-0.5647;-48.077
5.351.563;-0.7173;1,589583333;-10.836;-0.5342;-47.161
5.390.625;-0.6563;1,165972222;-10.836;-0.5037;-46.245
5.429.688;-0.5952;0,741666667;-10.836;-0.4731;-45.330
5.468.750;-0.5342;0,529861111;-10.836;-0.4426;-44.414
5.507.813;-0.4731;0,10625;-10.836;-0.4121;-43.498
5.546.875;-0.4121;-0.0153;-10.836;-0.3510;-42.582
5.585.938;-0.3816;-0.0763;-10.836;-0.3205;-41.972
5.625.000;-0.3205;-0.1068;-10.836;-0.2900;-41.056
5.664.063;-0.2595;-0.1679;-10.836;-0.2595;-40.140
5.703.125;-0.1984;-0.2289;-10.836;-0.2289;-39.225
5.742.188;-0.1679;-0.2595;-10.836;-0.1984;-38.309
5.781.250;-0.1068;-0.3205;-10.836;-0.1679;-37.393
5.820.313;-0.0458;-0.3510;-10.836;-0.1374;-36.783
5.859.375;-0.0153;-0.4121;-10.836;-0.1068;-35.867
5.898.438;0,10625;-0.4731;-10.836;-0.0763;-34.951
5.937.500;0,529861111;-0.5037;-10.836;-0.0458;-34.341
5.976.563;0,741666667;-0.5647;-10.836;-0.0153;-33.425
6.015.625;1,165972222;-0.5952;-10.836;0,10625;-32.509
6.054.688;1,377777778;-0.6563;-10.836;0,10625;-31.899
6.093.750;1,802083333;-0.6868;-10.836;0,318055556;-30.983
6.132.813;2,225694444;-0.7173;-10.836;0,529861111;-30.067
6.171.875;2,4375;-0.7784;-10.836;0,741666667;-29.457
6.210.938;2,861805556;-0.8089;-10.836;0,954166667;-28.541
6.250.000;3,073611111;-0.8700;-10.836;1,165972222;-27.930
6.289.063;3,497916667;-0.9005;-10.836;1,377777778;-27.015
6.328.125;3,709722222;-0.9615;-10.836;1,589583333;-26.404
6.367.188;4,133333333;-0.9921;-10.836;1,802083333;-25.488
6.406.250;4,345833333;-10.226;-10.836;2,013888889;-24.878
6.445.313;4,557638889;-10.836;-10.836;2,225694444;-24.267
6.484.375;4,98125;-11.142;-10.836;2,4375;-23.352
6.523.438;5,19375;-11.447;-10.531;2,65;-22.741
6.562.500;5,617361111;-11.752;-10.531;2,861805556;-22.131
6.601.563;5,829166667;-12.363;-10.531;2,861805556;-21.215
6.640.625;6,041666667;-12.668;-10.531;3,073611111;-20.604
6.679.688;6,465277778;-12.973;-10.531;3,285416667;-19.994
6.718.750;6,677083333;-13.278;-10.531;3,497916667;-19.078
6.757.813;6,889583333;-13.889;-10.531;3,709722222;-18.468
6.796.875;10.531;-14.194;-10.531;3,921527778;-17.857
6.835.938;10.836;-14.499;-10.531;3,921527778;-17.247
6.875.000;11.142;-14.805;-10.531;4,133333333;-16.331
6.914.063;11.447;-15.110;-10.531;4,345833333;-15.720
6.953.125;12.057;-15.415;-10.531;4,557638889;-15.110
6.992.188;12.363;-16.026;-10.531;4,769444444;-14.499
7.031.250;12.668;-16.331;-10.531;4,769444444;-13.889
7.070.313;12.973;-16.636;-10.531;4,98125;-13.278
7.109.375;13.278;-16.941;-10.531;5,19375;-12.668
7.148.438;13.584;-17.247;-10.531;5,405555556;-12.057
7.187.500;14.194;-17.552;-10.531;5,405555556;-11.447
7.226.563;14.499;-17.857;-10.531;5,617361111;-10.836
7.265.625;14.805;-18.162;-10.531;5,829166667;-10.226
7.304.688;15.110;-18.468;-10.531;5,829166667;-0.9615
7.343.750;15.415;-18.773;-10.531;6,041666667;-0.9005
7.382.813;15.720;-19.078;-10.226;6,253472222;-0.8394
7.421.875;16.026;-19.383;-10.226;6,253472222;-0.7784
7.460.938;16.331;-19.689;-10.226;6,465277778;-0.7173
7.500.000;16.636;-19.994;-10.226;6,677083333;-0.6563
7.539.063;16.941;-20.299;-10.226;6,677083333;-0.5952
7.578.125;17.247;-20.604;-10.226;6,889583333;-0.5342
7.617.188;17.552;-20.910;-10.226;10.226;-0.5037
7.656.250;17.857;-20.910;-10.226;10.226;-0.4426
7.695.313;18.162;-21.215;-10.226;10.531;-0.3816
7.734.375;18.468;-21.520;-10.226;10.836;-0.3205
7.773.438;18.773;-21.825;-10.226;10.836;-0.2900
7.812.500;19.078;-22.131;-10.226;11.142;-0.2289
7.851.563;19.383;-22.436;-10.226;11.142;-0.1679
7.890.625;19.689;-22.436;-10.226;11.447;-0.1068
7.929.688;19.994;-22.741;-0.9921;11.447;-0.0763
7.968.750;19.994;-23.046;-0.9921;11.752;-0.0153
8.007.813;20.299;-23.352;-0.9921;12.057;0,10625
8.046.875;20.604;-23.657;-0.9921;12.057;0,318055556
8.085.938;20.910;-23.657;-0.9921;12.363;0,741666667
8.125.000;21.215;-23.962;-0.9921;12.363;1,165972222
8.164.063;21.520;-24.267;-0.9921;12.668;1,377777778
8.203.125;21.520;-24.267;-0.9921;12.668;1,802083333
8.242.188;21.825;-24.573;-0.9921;12.973;2,013888889
8.281.250;22.131;-24.878;-0.9921;12.973;2,4375
8.320.313;22.436;-25.183;-0.9921;13.278;2,65
8.359.375;22.436;-25.183;-0.9921;13.278;3,073611111
8.398.438;22.741;-25.488;-0.9615;13.584;3,285416667
8.437.500;23.046;-25.488;-0.9615;13.584;3,709722222
8.476.563;23.352;-25.794;-0.9615;13.889;3,921527778
8.515.625;23.352;-26.099;-0.9615;13.889;4,345833333
8.554.688;23.657;-26.099;-0.9615;13.889;4,557638889
8.593.750;23.962;-26.404;-0.9615;14.194;4,769444444
8.632.813;23.962;-26.709;-0.9615;14.194;5,19375
8.671.875;24.267;-26.709;-0.9615;14.499;5,405555556
8.710.938;24.573;-27.015;-0.9615;14.499;5,829166667
8.750.000;24.573;-27.015;-0.9615;14.805;6,041666667
8.789.063;24.878;-27.320;-0.9615;14.805;6,253472222
8.828.125;25.183;-27.320;-0.9310;14.805;6,465277778
8.867.188;25.183;-27.625;-0.9310;15.110;6,889583333
8.906.250;25.488;-27.625;-0.9310;15.110;10.226
8.945.313;25.488;-27.930;-0.9310;15.415;10.531
8.984.375;25.794;-27.930;-0.9310;15.415;11.142
9.023.438;25.794;-28.236;-0.9310;15.415;11.447
9.062.500;26.099;-28.236;-0.9310;15.720;11.752
9.101.563;26.404;-28.541;-0.9310;15.720;12.057
9.140.625;26.404;-28.541;-0.9310;15.720;12.363
9.179.688;26.709;-28.846;-0.9310;16.026;12.973
9.218.750;26.709;-28.846;-0.9005;16.026;13.278
9.257.813;27.015;-28.846;-0.9005;16.026;13.584
9.296.875;27.015;-29.151;-0.9005;16.331;13.889
9.335.938;32.204;-35.867;-13.889;23.657;22.741
9.375.000;47.466;-55.403;-27.320;45.940;46.245
9.414.063;67.002;-79.518;-42.582;74.023;56.319
9.453.125;83.181;-97.222;-52.350;97.222;38.919
9.492.188;94.170;-106.990;-54.487;114.316;25.488
9.531.250;101.496;-106.685;-48.382;126.526;23.962
9.570.313;108.822;-99.054;-34.341;134.463;12.057
9.609.375;117.063;-92.033;-20.604;137.821;-18.468
9.648.438;123.474;-91.117;-18.468;136.600;-66.697
9.687.500;124.695;-95.391;-23.046;132.937;-128.053
9.726.563;122.558;-99.359;-28.541;128.358;-193.376
9.765.625;120.421;-102.411;-35.562;120.726;-249.542
9.804.688;117.063;-102.717;-41.056;111.874;-272.741
9.843.750;113.400;-96.306;-41.667;106.685;-256.563
9.882.813;111.264;-88.980;-41.667;106.685;-221.764
9.921.875;113.706;-85.928;-40.751;110.653;-188.492
9.960.938;122.253;-87.149;-36.477;117.063;-145.757
10.000.000;98.443;14.805;-14.805;2,65;-0.4426
10.039.063;66.392;34.951;-18.468;14.194;-171.398
10.078.125;27.320;58.150;-23.657;30.372;-360.958
10.117.188;-10.226;72.192;-26.709;48.077;-442.155
10.156.250;-48.687;73.413;-31.899;59.066;-424.756
10.195.313;-74.328;68.223;-38.309;59.066;-349.969
10.234.375;-71.581;65.476;-37.698;52.350;-243.742
10.273.438;-47.161;67.613;-30.678;45.330;-167.430
10.312.500;-26.404;71.276;-25.488;38.004;-164.683
10.351.563;-23.657;72.802;-27.320;28.541;-220.543
10.390.625;-30.983;70.665;-32.204;17.552;-277.015
10.429.688;-33.425;67.308;-36.477;5,19375;-301.740
10.468.750;-25.794;67.308;-38.004;2,861805556;-313.950
10.507.813;-16.331;70.055;-35.562;5,829166667;-332.570
10.546.875;-18.468;68.223;-32.204;13.584;-361.264
10.585.938;-29.457;59.982;-31.288;12.973;-408.272
10.625.000;-31.288;48.687;-35.562;4,557638889;-469.933
10.664.063;-21.215;38.614;-44.414;0,741666667;-501.374
10.703.125;-14.805;34.035;-53.266;0,741666667;-485.501
10.742.188;-18.773;36.783;-58.455;3,073611111;-454.670
10.781.250;-31.288;42.582;-60.287;6,677083333;-414.683
10.820.313;-45.940;46.245;-59.066;15.720;-350.885
10.859.375;-49.298;48.993;-53.266;21.825;-272.741
10.898.438;-39.835;53.571;-41.972;24.878;-209.860
10.937.500;-29.762;57.540;-29.151;25.794;-175.672
10.976.563;-23.962;59.066;-21.520;27.320;-152.473
11.015.625;-17.857;59.066;-23.352;31.593;-125.000
11.054.688;-12.057;55.098;-33.425;34.341;-102.411
11.093.750;-0.9615;46.856;-43.498;31.593;-100.580
11.132.813;-12.057;40.751;-47.772;27.625;-122.863
11.171.875;-16.941;38.309;-45.330;26.404;-157.662
11.210.938;-16.636;34.341;-39.530;24.573;-201.313
11.250.000;-11.142;30.372;-34.035;19.994;-238.553
11.289.063;-10.836;28.846;-30.372;16.026;-233.974
11.328.125;-19.689;26.709;-30.983;14.499;-189.103
11.367.188;-31.593;24.573;-32.814;13.889;-132.021
11.406.250;-36.172;24.878;-30.678;13.889;-82.875
11.445.313;-28.236;26.404;-24.878;14.194;-56.929
11.484.375;-15.415;26.709;-19.994;13.278;-63.034
11.523.438;-10.531;25.794;-21.520;10.531;-87.759
11.562.500;-13.584;25.488;-24.878;5,829166667;-103.327
11.601.563;-20.604;24.573;-23.657;5,405555556;-95.696
11.640.625;-27.320;23.352;-22.436;4,557638889;-94.170
11.679.688;-36.172;19.689;-25.794;3,285416667;-129.884
11.718.750;-47.161;12.057;-33.730;2,861805556;-164.072
11.757.813;-53.571;3,709722222;-41.972;5,405555556;-157.357
11.796.875;-52.350;2,225694444;-47.466;12.363;-139.957
11.835.938;-45.940;2,013888889;-52.350;14.194;-137.821
11.875.000;-39.835;1,802083333;-57.540;16.331;-112.790
11.914.063;-33.730;2,65;-57.540;18.773;-70.055
11.953.125;-26.099;4,769444444;-53.877;18.773;-64.866
11.992.188;-21.520;6,465277778;-48.687;16.941;-86.538
12.031.250;-21.825;12.363;-41.972;15.720;-90.201
12.070.313;-21.215;17.857;-34.951;16.941;-69.139
12.109.375;-16.941;23.352;-29.762;18.773;-50.824
12.148.438;-10.226;27.015;-28.541;19.689;-54.487
12.187.500;-0.3205;27.930;-29.457;20.910;-75.244
12.226.563;4,345833333;25.183;-30.067;20.604;-88.980
12.265.625;16.026;22.436;-30.372;16.941;-90.507
12.304.688;18.162;20.604;-33.730;6,889583333;-125.000
12.343.750;10.531;18.773;-38.004;-0.0458;-196.429
12.382.813;0,10625;16.331;-40.751;-10.836;-233.974
12.421.875;-10.531;12.363;-44.109;-15.720;-216.575
12.460.938;-19.078;5,829166667;-46.856;-15.415;-178.114
12.500.000;-22.131;4,98125;-45.940;-12.057;-134.768
12.539.063;-21.215;4,769444444;-44.719;-0.8700;-103.327
12.578.125;-19.994;2,013888889;-44.414;-0.8089;-96.306
12.617.188;-15.415;-0.2595;-46.551;-0.8700;-102.717
12.656.250;-0.7784;-0.7173;-48.993;-0.9615;-114.621
12.695.313;-0.1374;-11.142;-47.161;-0.8700;-131.716
12.734.375;-0.0153;-16.636;-44.109;-0.5037;-154.915
12.773.438;-0.6258;-18.773;-44.719;-0.0763;-171.093
12.812.500;-13.584;-12.973;-43.498;0,741666667;-175.366
12.851.563;-13.278;-0.2900;-36.783;3,073611111;-167.125
12.890.625;-0.6258;2,65;-27.015;5,617361111;-125.305
12.929.688;1,589583333;4,98125;-19.078;6,465277778;-70.360
12.968.750;11.447;5,19375;-14.805;6,041666667;-35.256
13.007.813;15.720;3,921527778;-14.805;3,497916667;-23.046
13.046.875;13.584;3,497916667;-19.383;-0.1984;-44.109
13.085.938;13.278;4,769444444;-23.962;-0.8394;-105.159
13.125.000;16.636;11.752;-21.215;-0.9310;-161.325
13.164.063;19.994;16.331;-13.889;-0.5342;-167.735
13.203.125;23.352;19.078;-0.5342;0,10625;-151.252
13.242.188;27.015;21.825;2,225694444;4,345833333;-132.937
13.281.250;30.372;20.604;4,345833333;11.752;-109.127
13.320.313;30.983;12.973;-0.0763;13.584;-103.632
13.359.375;29.151;0,741666667;-12.363;12.668;-123.779
13.398.438;29.457;-0.8394;-22.436;6,889583333;-158.578
13.437.500;31.288;-13.889;-27.930;5,405555556;-200.397
13.476.563;33.120;-14.194;-28.541;5,405555556;-244.658
13.515.625;37.393;-0.8394;-27.015;5,19375;-288.309
13.554.688;41.361;-0.1374;-27.015;4,133333333;-293.193
13.593.750;40.751;-0.2289;-29.151;3,709722222;-245.574
13.632.813;38.614;-0.9615;-30.678;3,285416667;-196.123
13.671.875;37.393;-13.278;-30.983;2,4375;-165.904
13.710.938;35.867;-11.142;-30.372;2,65;-128.968
13.750.000;31.899;-0.5647;-27.320;5,19375;-80.739
13.789.063;29.151;0,10625;-20.910;12.363;-46.245
13.828.125;34.035;3,709722222;-12.057;13.278;-34.341
13.867.188;45.635;10.531;-0.2289;11.142;-28.236
13.906.250;55.708;16.026;3,709722222;10.226;-41.056
13.945.313;59.982;19.994;10.836;6,465277778;-78.907
13.984.375;59.371;22.741;12.668;3,709722222;-118.895
14.023.438;56.319;22.741;10.531;-0.1679;-157.051
14.062.500;54.792;16.941;4,557638889;-0.8089;-178.724
14.101.563;55.403;4,133333333;1,165972222;-10.531;-168.346
14.140.625;55.403;-0.3510;-0.4426;-10.226;-141.789
14.179.688;54.792;-0.5952;-0.9005;-0.9921;-111.874
14.218.750;56.929;-0.3205;-0.8700;-0.6868;-82.875
14.257.813;59.066;-0.1068;-0.7173;-0.0153;-63.950
14.296.875;56.624;-0.1679;-0.9310;1,802083333;-68.529
14.335.938;49.298;-0.6258;-15.110;-0.1679;-110.043
14.375.000;41.361;-13.889;-19.689;-0.7479;-161.630
14.414.063;36.172;-20.604;-21.825;-0.9921;-161.325
14.453.125;30.067;-24.267;-23.962;-10.226;-124.389
14.492.188;23.352;-26.099;-24.878;-0.9310;-105.769
14.531.250;21.215;-26.099;-24.878;-0.8394;-88.065
14.570.313;25.183;-27.015;-24.573;-0.8700;-65.476
14.609.375;28.541;-29.457;-24.878;-0.5647;-53.571
14.648.438;25.794;-30.983;-23.046;0,741666667;-45.940
14.687.500;23.046;-29.151;-14.194;5,19375;-54.182
14.726.563;22.436;-24.267;-0.3205;6,465277778;-60.287
14.765.625;23.046;-15.415;3,709722222;4,557638889;-40.140
14.804.688;27.625;-0.1679;10.836;2,861805556;-22.436
14.843.750;34.035;10.836;6,677083333;1,165972222;-17.247
14.882.813;38.004;16.331;2,013888889;-0.5342;-0.9310
14.921.875;41.361;14.805;-0.1374;-13.889;-10.836
14.960.938;41.972;6,677083333;-0.4426;-17.552;-41.056
15.000.000;37.698;1,802083333;-0.9921;-18.773;-89.286
15.039.063;30.983;-0.7173;-14.805;-20.604;-123.779
15.078.125;25.488;-16.636;-15.415;-21.520;-143.315
15.117.188;26.404;-19.994;-12.057;-19.078;-142.399
15.156.250;31.899;-18.468;-0.8394;-14.499;-93.864
15.195.313;34.951;-16.636;-0.8089;-10.226;-35.256
15.234.375;32.509;-17.247;-13.278;-0.9005;-0.8700
15.273.438;25.183;-22.741;-21.215;-0.9005;-0.0458
15.312.500;17.247;-29.151;-26.404;-0.7479;-0.3816
15.351.563;14.805;-30.983;-25.183;-0.2900;-24.878
15.390.625;15.720;-28.846;-17.857;3,073611111;-24.878
15.429.688;17.857;-26.404;-0.9310;16.026;13.278
15.468.750;22.436;-24.878;-0.3510;26.099;45.330
15.507.813;28.236;-22.436;-0.0458;31.593;58.761
15.546.875;33.730;-19.383;1,802083333;30.983;57.540
15.585.938;38.614;-17.247;4,769444444;25.488;26.099
15.625.000;40.446;-15.415;11.752;19.078;-18.468
15.664.063;39.835;-10.531;16.636;14.499;-49.298
15.703.125;38.309;-0.4426;17.552;11.447;-73.718
15.742.188;38.309;-0.0458;11.752;6,677083333;-95.085
15.781.250;42.582;1,589583333;2,225694444;6,041666667;-99.359
15.820.313;47.466;3,709722222;-0.4121;4,98125;-82.875
15.859.375;49.908;5,405555556;-0.7173;2,861805556;-59.676
15.898.438;50.214;6,041666667;-0.7479;-0.1374;-46.245
15.937.500;44.414;4,345833333;-10.226;-0.8394;-37.698
15.976.563;34.951;1,377777778;-15.110;-11.752;-29.151
16.015.625;30.067;-0.2595;-20.299;-10.531;-25.183
16.054.688;29.457;-0.7173;-25.183;-0.9005;-19.689
16.093.750;32.814;-0.8700;-27.625;-0.7784;-12.057
16.132.813;39.225;-0.8089;-26.099;-0.5342;-11.447
16.171.875;42.582;-0.9310;-23.657;-0.2289;-15.110
16.210.938;44.719;-13.278;-22.131;-0.1679;-27.320
16.250.000;44.109;-19.078;-23.962;-0.3816;-36.477
16.289.063;37.698;-25.488;-29.457;-0.6563;-18.162
16.328.125;30.372;-29.762;-32.204;-0.9615;6,465277778
16.367.188;28.541;-26.709;-28.541;-12.363;6,677083333
16.406.250;32.204;-16.331;-21.215;-15.415;-23.657
16.445.313;36.477;-0.5952;-15.415;-18.468;-57.234
16.484.375;38.614;0,10625;-11.447;-20.910;-70.360
16.523.438;39.530;0,318055556;-0.9615;-23.352;-73.413
16.562.500;39.835;-0.1984;-10.531;-25.794;-65.781
16.601.563;37.393;-0.3816;-14.499;-26.404;-55.098
16.640.625;34.341;-0.5342;-18.162;-26.404;-47.466
16.679.688;35.256;-0.5037;-19.078;-26.404;-52.961
16.718.750;39.530;-0.1374;-19.383;-23.962;-67.308
16.757.813;40.140;1,589583333;-21.825;-19.994;-71.276
16.796.875;36.172;2,013888889;-23.046;-18.162;-71.581
16.835.938;32.204;0,529861111;-22.131;-19.994;-63.339
16.875.000;33.425;-0.1679;-18.773;-24.267;-41.361
16.914.063;37.393;-0.4731;-14.805;-27.625;-31.899
16.953.125;45.024;-0.5647;-10.836;-26.404;-35.256
16.992.188;55.098;-0.3205;-0.6563;-18.773;-18.162
17.031.250;59.676;-0.1374;-0.1679;-0.5952;19.689
17.070.313;52.656;-0.0153;0,10625;4,133333333;62.424
17.109.375;38.919;-0.1374;-0.7784;6,253472222;90.507
17.148.438;28.541;-0.7479;-21.215;2,225694444;75.855
17.187.500;24.267;-14.499;-29.762;-0.4426;40.140
17.226.563;23.352;-20.604;-35.562;-14.194;6,041666667
17.265.625;23.046;-26.099;-42.277;-25.183;-31.288
17.304.688;25.488;-27.015;-44.719;-34.035;-55.098
17.343.750;32.814;-22.131;-38.614;-38.919;-50.519
17.382.813;39.225;-16.331;-31.593;-38.614;-34.646
17.421.875;38.309;-14.194;-30.678;-35.867;-41.361
17.460.938;34.341;-14.499;-33.120;-32.509;-106.074
17.500.000;32.204;-16.636;-32.204;-25.794;-159.799
17.539.063;31.593;-21.215;-28.541;-17.247;-144.231
17.578.125;30.372;-23.352;-23.657;-0.9615;-85.012
17.617.188;28.236;-20.299;-19.689;-0.6258;-11.752
17.656.250;31.288;-14.805;-17.552;-0.8089;45.940
17.695.313;38.309;-12.057;-17.247;-10.531;80.433
17.734.375;40.446;-13.889;-18.162;-11.142;89.591
17.773.438;38.309;-20.604;-21.520;-13.584;65.171
17.812.500;37.393;-31.899;-25.183;-17.857;22.131
17.851.563;38.919;-41.056;-27.625;-19.689;-14.499
17.890.625;37.088;-44.719;-30.678;-18.773;-41.056
17.929.688;28.846;-45.940;-33.425;-15.720;-51.129
17.968.750;20.604;-43.498;-31.593;-0.9921;-46.856
18.007.813;19.383;-38.309;-24.878;-0.2289;-39.835
18.046.875;24.573;-30.678;-13.889;2,65;-0.9310
18.085.938;33.120;-24.878;-0.1679;4,557638889;35.256
18.125.000;40.751;-23.657;4,769444444;4,345833333;41.361
18.164.063;44.414;-23.046;11.142;2,861805556;3,285416667
18.203.125;43.803;-19.383;11.447;-0.0458;-35.562
18.242.188;44.109;-13.584;6,041666667;-0.5037;-58.150
18.281.250;47.772;-0.5342;4,98125;-0.7173;-56.013
18.320.313;53.266;2,65;5,405555556;-0.8700;-31.288
18.359.375;58.455;10.836;4,345833333;-10.531;0,529861111
18.398.438;61.813;14.194;1,589583333;-15.415;4,769444444
18.437.500;61.508;13.889;0,741666667;-24.267;-25.794
18.476.563;57.540;6,677083333;0,954166667;-34.341;-66.392
18.515.625;53.877;2,013888889;-0.0763;-38.614;-99.664
18.554.688;52.656;-0.4731;-0.6258;-35.256;-120.116
18.593.750;50.519;-12.973;-14.194;-30.372;-125.305
18.632.813;44.109;-20.604;-26.404;-27.320;-120.726
18.671.875;36.783;-26.099;-41.972;-23.046;-92.949
18.710.938;32.509;-28.846;-51.740;-20.910;-42.582
18.750.000;29.151;-30.067;-50.824;-21.520;3,921527778
18.789.063;23.657;-29.457;-44.719;-22.131;44.109
18.828.125;16.941;-24.267;-36.783;-21.520;73.718
18.867.188;10.531;-18.162;-29.151;-20.604;89.591
18.906.250;3,709722222;-19.994;-26.099;-18.773;89.286
18.945.313;0,954166667;-28.236;-24.878;-16.026;71.276
18.984.375;0,529861111;-36.172;-23.352;-14.805;45.940
19.023.438;2,225694444;-41.056;-23.962;-15.415;47.466
19.062.500;3,709722222;-42.582;-23.962;-15.110;59.066
19.101.563;4,557638889;-42.277;-23.046;-14.499;33.120
19.140.625;10.531;-38.614;-23.046;-16.941;-23.352
19.179.688;17.247;-32.509;-20.604;-23.046;-63.339
19.218.750;25.183;-24.878;-12.668;-26.709;-56.624
19.257.813;34.646;-18.468;-0.1374;-25.183;-23.657
19.296.875;41.056;-12.668;6,465277778;-19.078;5,617361111
19.335.938;41.667;-0.6563;16.941;-13.278;30.678
19.375.000;40.751;-0.2289;21.215;-10.836;0,954166667
19.414.063;40.446;-0.1068;21.215;-0.9921;-77.381
19.453.125;36.783;-0.4731;13.584;-12.363;-106.685
19.492.188;30.678;-12.057;1,802083333;-16.026;-53.266
19.531.250;27.015;-15.720;-0.3816;-14.805;35.256
19.570.313;25.488;-13.584;-0.5342;-10.226;128.663
19.609.375;24.267;-0.9310;-0.5952;-0.8089;173.230
19.648.438;24.573;-0.7173;-0.6868;-11.447;138.431
19.687.500;24.878;-0.7784;-0.8394;-18.773;62.424
19.726.563;21.520;-10.531;-12.973;-27.625;-11.142
19.765.625;11.447;-17.552;-20.910;-32.204;-39.835
19.804.688;0,529861111;-27.930;-28.236;-29.762;-17.857
19.843.750;-0.3816;-38.919;-30.372;-21.825;0,318055556
19.882.813;-0.4121;-47.161;-28.846;-11.752;3,921527778
19.921.875;-0.1374;-51.435;-24.878;-0.1984;0,318055556
19.960.938;0,529861111;-52.961;-19.383;3,921527778;-27.625
20.000.000;107.906;5,829166667;-13.889;1,589583333;0,10625
20.039.063;102.717;12.363;-14.194;11.142;-125.611
20.078.125;95.391;20.604;-16.331;26.404;-267.857
20.117.188;83.486;26.099;-20.604;38.309;-379.579
20.156.250;61.203;24.573;-25.794;42.277;-428.724
20.195.313;43.803;22.131;-27.625;40.140;-395.147
20.234.375;47.161;20.604;-27.320;33.120;-326.160
20.273.438;63.645;19.383;-27.015;24.878;-279.151
20.312.500;76.160;19.078;-27.625;18.773;-275.488
20.351.563;75.855;19.689;-31.288;12.057;-308.150
20.390.625;67.613;19.383;-40.140;0,529861111;-346.917
20.429.688;62.424;17.857;-52.045;-11.447;-356.685
20.468.750;67.308;17.552;-60.897;-22.131;-338.675
20.507.813;77.076;19.689;-61.508;-26.404;-334.096
20.546.875;79.212;22.436;-58.455;-23.962;-351.496
20.585.938;74.328;24.267;-59.066;-22.131;-375.916
20.625.000;70.971;24.878;-62.729;-24.267;-386.600
20.664.063;74.023;27.320;-65.781;-27.625;-377.137
20.703.125;77.381;30.372;-69.750;-30.983;-397.589
20.742.188;72.802;27.015;-77.686;-36.172;-435.745
20.781.250;62.729;18.162;-85.623;-39.530;-421.398
20.820.313;56.013;11.142;-88.675;-38.004;-376.832
20.859.375;56.929;3,285416667;-85.928;-31.593;-341.117
20.898.438;58.150;-0.1679;-76.465;-21.520;-303.877
20.937.500;53.571;-0.7479;-62.424;-11.447;-270.604
20.976.563;46.856;-11.447;-52.350;-0.4426;-259.921
21.015.625;41.361;-13.584;-48.687;-0.0458;-259.005
21.054.688;39.530;-12.363;-46.856;1,165972222;-255.647
21.093.750;41.361;-0.7784;-44.719;0,318055556;-266.026
21.132.813;44.414;-0.2289;-43.498;-0.2900;-270.604
21.171.875;45.024;0,10625;-42.888;-0.3816;-240.995
21.210.938;45.330;3,073611111;-41.667;-0.2289;-190.324
21.250.000;48.993;13.584;-39.835;0,10625;-136.600
21.289.063;52.350;20.910;-37.698;0,741666667;-99.359
21.328.125;51.740;22.131;-34.646;0,954166667;-99.054
21.367.188;49.298;19.689;-29.457;0,741666667;-136.294
21.406.250;48.077;15.720;-22.436;-0.0153;-193.987
21.445.313;50.214;12.363;-18.162;-0.0763;-240.690
21.484.375;55.403;12.363;-19.689;0,10625;-249.237
21.523.438;60.287;16.636;-22.741;2,013888889;-231.838
21.562.500;60.897;20.299;-25.794;4,133333333;-219.628
21.601.563;56.624;19.689;-28.541;4,557638889;-220.543
21.640.625;52.045;15.110;-31.899;0,741666667;-229.701
21.679.688;48.077;4,557638889;-37.698;-0.6563;-235.195
21.718.750;42.888;-0.0763;-47.772;-11.142;-222.375
21.757.813;36.477;-0.3205;-59.066;-14.499;-199.481
21.796.875;34.341;-0.2595;-67.613;-19.994;-184.829
21.835.938;37.088;-0.2595;-71.581;-25.183;-181.166
21.875.000;41.361;-0.6258;-72.497;-29.151;-186.966
21.914.063;44.719;-11.447;-70.971;-30.983;-208.333
21.953.125;47.466;-16.636;-64.560;-31.288;-237.027
21.992.188;49.298;-19.078;-54.182;-30.678;-256.258
22.031.250;48.993;-16.026;-42.582;-28.236;-255.037
22.070.313;47.161;-0.9310;-32.814;-25.183;-235.195
22.109.375;49.298;-0.4121;-23.352;-21.825;-221.764
22.148.438;52.350;-0.4426;-19.383;-19.078;-214.438
22.187.500;53.266;-0.6868;-22.131;-17.857;-199.786
22.226.563;51.435;-10.531;-25.794;-16.941;-189.713
22.265.625;48.993;-16.331;-25.183;-15.110;-184.829
22.304.688;46.245;-19.689;-21.520;-11.447;-171.398
22.343.750;42.277;-20.604;-19.383;-0.7479;-156.136
22.382.813;35.867;-22.741;-20.604;-0.4121;-147.894
22.421.875;28.541;-25.488;-24.267;-0.4121;-145.757
22.460.938;24.267;-26.404;-31.288;-0.7479;-148.810
22.500.000;20.604;-26.099;-41.972;-11.752;-145.757
22.539.063;12.973;-28.541;-54.182;-16.636;-130.800
22.578.125;1,377777778;-34.646;-63.339;-20.299;-121.642
22.617.188;-0.9310;-42.277;-66.697;-16.331;-112.485
22.656.250;-14.805;-47.161;-64.560;-0.7784;-91.422
22.695.313;-12.363;-50.824;-59.066;-0.2595;-85.012
22.734.375;-0.7479;-52.961;-54.182;-0.2900;-102.106
22.773.438;-0.1984;-50.519;-50.519;-0.5952;-102.411
22.812.500;3,285416667;-42.277;-47.466;-10.836;-63.950
22.851.563;10.531;-32.204;-44.414;-16.941;-36.477
22.890.625;15.720;-23.352;-40.140;-20.299;-53.877
22.929.688;22.741;-16.636;-38.614;-21.520;-92.033
22.968.750;31.288;-10.226;-42.888;-25.794;-138.736
23.007.813;37.393;-0.5647;-48.993;-33.425;-189.408
23.046.875;42.582;-0.5647;-51.740;-41.056;-219.322
23.085.938;47.466;-0.9005;-49.603;-45.024;-213.828
23.125.000;47.161;-10.836;-45.940;-45.024;-176.587
23.164.063;41.667;-10.226;-41.667;-44.109;-130.495
23.203.125;38.309;-10.836;-38.004;-42.582;-115.232
23.242.188;39.225;-13.889;-35.256;-39.530;-140.263
23.281.250;39.835;-17.247;-34.646;-37.393;-176.282
23.320.313;38.614;-19.689;-37.698;-36.172;-204.670
23.359.375;39.835;-21.825;-41.667;-33.120;-217.796
23.398.438;42.277;-23.046;-45.635;-28.236;-202.534
23.437.500;40.446;-22.741;-51.129;-25.488;-170.482
23.476.563;36.783;-21.215;-53.266;-26.099;-150.336
23.515.625;31.593;-18.773;-48.993;-25.794;-153.083
23.554.688;23.352;-14.194;-41.056;-22.436;-153.694
23.593.750;16.026;-10.226;-33.120;-18.773;-123.779
23.632.813;11.752;-0.7173;-29.151;-17.857;-99.969
23.671.875;4,769444444;-0.5647;-30.372;-19.078;-110.653
23.710.938;1,802083333;-0.7784;-34.341;-22.436;-105.159
23.750.000;0,741666667;-13.889;-39.225;-27.625;-70.360
23.789.063;3,921527778;-19.078;-41.361;-31.288;-50.214
23.828.125;16.026;-22.131;-41.056;-32.204;-62.118
23.867.188;24.573;-23.962;-40.140;-29.762;-96.917
23.906.250;27.625;-24.267;-37.393;-26.404;-127.747
23.945.313;27.320;-21.520;-33.120;-23.352;-145.452
23.984.375;25.488;-13.889;-27.930;-17.247;-152.473
24.023.438;26.709;-0.3816;-22.131;-11.142;-139.347
24.062.500;32.814;2,4375;-18.468;-0.9615;-109.127
24.101.563;39.835;5,617361111;-18.773;-10.531;-90.812
24.140.625;42.582;11.447;-21.825;-12.363;-98.443
24.179.688;41.361;11.447;-24.573;-15.720;-109.737
24.218.750;39.530;4,345833333;-27.930;-18.468;-121.642
24.257.813;36.783;-0.0763;-30.983;-16.636;-130.495
24.296.875;30.067;-0.4121;-30.678;-0.5952;-97.833
24.335.938;22.131;-0.4731;-27.930;4,345833333;-35.867
24.375.000;16.331;-0.8700;-26.099;12.973;-0.1679
24.414.063;11.447;-16.636;-27.015;16.636;6,041666667
24.453.125;4,769444444;-25.183;-29.457;18.162;21.520
24.492.188;4,133333333;-28.846;-28.846;19.078;13.278
24.531.250;4,769444444;-25.488;-27.015;18.468;-29.151
24.570.313;4,98125;-18.468;-25.183;15.415;-68.529
24.609.375;6,041666667;-11.752;-21.825;14.194;-80.739
24.648.438;12.363;-0.4426;-19.383;14.499;-78.297
24.687.500;17.247;1,165972222;-21.520;6,253472222;-68.834
24.726.563;20.910;2,65;-28.236;-0.1068;-61.203
24.765.625;23.657;0,10625;-36.783;-10.226;-70.055
24.804.688;24.573;-0.8394;-44.109;-17.857;-84.096
24.843.750;23.657;-16.331;-47.161;-22.741;-85.317
24.882.813;27.930;-16.331;-44.109;-23.657;-82.265
24.921.875;34.951;-11.447;-39.530;-21.520;-84.096
24.960.938;36.783;-0.9310;-35.867;-19.689;-85.012
25.000.000;34.646;-0.7479;-29.762;-16.941;-87.759
25.039.063;32.814;-0.4426;-25.183;-11.142;-93.864
25.078.125;30.067;-0.2900;-24.878;-0.4731;-97.527
25.117.188;28.846;-0.3205;-24.267;-0.2900;-99.969
25.156.250;31.593;-0.2900;-21.520;-0.4426;-98.138
25.195.313;34.035;-0.0458;-20.299;-0.6563;-97.222
25.234.375;34.035;0,529861111;-25.488;-0.9921;-96.612
25.273.438;30.678;0,10625;-34.035;-12.363;-78.907
25.312.500;25.488;-0.2900;-39.530;-0.7784;-52.656
25.351.563;21.825;-0.7173;-38.004;1,377777778;-22.741
25.390.625;18.773;-11.142;-30.983;6,889583333;16.636
25.429.688;15.110;-12.363;-22.436;12.973;32.509
25.468.750;12.668;-0.9615;-14.499;11.752;16.331
25.507.813;11.752;-0.6563;-11.142;6,253472222;5,617361111
25.546.875;15.415;-0.5647;-11.752;3,709722222;3,073611111
25.585.938;22.741;-0.5952;-12.668;0,10625;-19.994
25.625.000;26.404;-0.5647;-14.499;-0.4731;-44.719
25.664.063;23.962;-0.6563;-19.078;-0.9615;-61.813
25.703.125;19.078;-11.142;-24.573;-10.226;-90.812
25.742.188;11.752;-17.247;-28.236;-0.4426;-81.349
25.781.250;1,589583333;-19.078;-27.930;0,954166667;-29.762
25.820.313;-0.3205;-11.752;-22.741;3,709722222;3,497916667
25.859.375;-0.1068;-0.0153;-12.057;10.226;32.509
25.898.438;4,133333333;5,19375;0,529861111;12.973;58.455
25.937.500;12.668;11.752;5,617361111;12.057;61.508
25.976.563;14.499;14.805;4,98125;6,677083333;38.004
26.015.625;13.278;13.278;1,377777778;4,98125;13.889
26.054.688;14.499;5,405555556;-0.1374;3,497916667;18.468
26.093.750;19.994;3,285416667;-0.3816;2,65;39.835
26.132.813;23.352;4,557638889;-0.7479;2,65;45.024
26.171.875;23.962;6,889583333;-10.226;3,497916667;27.015
26.210.938;24.267;11.447;-0.9615;4,557638889;12.057
26.250.000;23.046;10.226;-0.8394;4,133333333;3,073611111
26.289.063;19.383;4,769444444;-0.9615;2,861805556;-24.267
26.328.125;16.331;2,861805556;-0.9310;1,165972222;-52.350
26.367.188;16.941;2,65;-0.2900;2,4375;-48.687
26.406.250;19.994;4,345833333;3,073611111;10.226;-37.088
26.445.313;24.878;6,465277778;6,889583333;15.415;-37.088
26.484.375;32.204;14.194;18.468;19.994;-46.245
26.523.438;38.614;22.131;31.288;27.015;-49.908
26.562.500;43.193;28.541;40.140;34.646;-52.350
26.601.563;45.940;27.320;42.582;42.277;-53.266
26.640.625;43.193;21.520;39.225;49.908;-25.183
26.679.688;36.172;14.805;32.509;53.571;1,377777778
26.718.750;31.288;6,677083333;25.794;51.435;0,529861111
26.757.813;28.236;4,98125;19.994;47.772;2,013888889
26.796.875;26.099;3,709722222;16.331;45.024;-0.4731
26.835.938;25.794;0,954166667;13.889;39.835;-40.446
26.875.000;23.962;-0.3816;5,617361111;31.899;-51.129
26.914.063;15.415;-0.6868;0,954166667;23.352;-0.5647
26.953.125;5,617361111;-0.7479;-0.1984;16.026;48.077
26.992.188;5,829166667;-0.6258;-0.4731;6,465277778;60.897
27.031.250;11.752;-0.1984;-0.6868;3,285416667;45.940
27.070.313;16.026;3,497916667;-0.5647;3,285416667;30.372
27.109.375;20.299;6,253472222;-0.3205;6,253472222;26.404
27.148.438;18.773;5,617361111;-0.2900;18.468;47.161
27.187.500;11.142;3,921527778;-0.6258;28.236;81.044
27.226.563;2,225694444;0,954166667;-0.9921;31.593;100.275
27.265.625;-0.0458;-0.2900;-10.836;31.288;103.632
27.304.688;0,954166667;-0.2595;-0.8089;30.678;117.369
27.343.750;6,465277778;2,4375;-0.1679;28.846;146.368
27.382.813;16.636;10.836;3,285416667;24.878;155.220
27.421.875;20.299;15.415;5,617361111;21.215;112.485
27.460.938;21.825;17.857;4,769444444;19.383;46.856
27.500.000;19.994;17.552;3,073611111;17.857;10.531
27.539.063;15.720;12.973;1,802083333;15.110;5,19375
27.578.125;12.668;4,557638889;2,225694444;14.499;34.646
27.617.188;12.973;3,285416667;5,829166667;16.636;78.907
27.656.250;16.026;3,921527778;15.415;16.636;93.254
27.695.313;19.994;5,19375;19.689;15.415;60.897
27.734.375;25.183;12.057;21.520;13.889;3,921527778
27.773.438;33.120;16.941;22.741;14.805;-41.056
27.812.500;40.140;17.857;19.078;18.162;-67.002
27.851.563;41.667;15.415;10.836;17.552;-81.960
27.890.625;40.751;12.973;2,65;13.278;-96.001
27.929.688;38.614;10.836;0,10625;5,617361111;-103.632
27.968.750;36.783;10.531;0,318055556;2,861805556;-113.095
28.007.813;34.951;15.720;5,617361111;3,709722222;-108.822
28.046.875;34.646;22.131;19.689;13.584;-57.540
28.085.938;36.477;23.046;27.015;24.878;-0.3816
28.125.000;38.919;20.299;27.625;32.509;10.836
28.164.063;39.225;17.857;22.131;32.509;3,709722222
28.203.125;38.309;14.194;14.499;24.878;-27.015
28.242.188;37.088;12.057;12.057;15.720;-73.107
28.281.250;36.783;14.194;16.026;12.973;-85.623
28.320.313;40.446;19.689;23.962;16.026;-74.328
28.359.375;51.740;28.846;34.951;22.436;-74.939
28.398.438;63.950;38.004;44.109;29.762;-66.697
28.437.500;67.002;38.919;45.024;36.172;-32.509
28.476.563;59.676;30.678;36.783;40.140;13.889
28.515.625;49.298;18.468;24.267;39.835;71.886
28.554.688;40.446;4,769444444;13.584;34.951;114.927
28.593.750;34.646;-0.1068;5,829166667;28.541;127.137
28.632.813;33.120;-0.3205;4,98125;22.436;122.863
28.671.875;36.477;-0.0763;4,769444444;16.941;115.232
28.710.938;41.667;2,225694444;4,133333333;13.889;127.442
28.750.000;45.635;4,98125;3,497916667;11.752;151.862
28.789.063;45.635;6,465277778;1,589583333;6,041666667;153.083
28.828.125;42.888;10.226;-0.0458;3,921527778;134.158
28.867.188;41.972;10.226;-0.1374;2,65;121.947
28.906.250;40.446;4,98125;0,10625;1,589583333;117.674
28.945.313;35.562;0,318055556;2,861805556;0,954166667;101.190
28.984.375;29.762;-0.4731;6,465277778;2,013888889;76.160
29.023.438;25.183;-0.3816;13.278;4,769444444;89.896
29.062.500;24.267;-0.0763;14.805;11.752;151.557
29.101.563;27.320;0,318055556;14.805;14.499;186.355
29.140.625;29.457;-0.0153;11.752;11.142;172.009
29.179.688;26.709;-0.2900;5,405555556;5,829166667;166.514
29.218.750;20.299;-0.2595;3,497916667;6,889583333;198.260
29.257.813;13.889;2,4375;4,345833333;10.226;235.501
29.296.875;12.363;12.057;11.447;6,041666667;238.248
29.335.938;16.026;17.552;17.552;10.531;216.880
29.375.000;20.604;20.910;23.046;17.247;177.503
29.414.063;25.488;22.741;28.236;27.320;139.347
29.453.125;30.678;20.299;29.457;34.951;144.536
29.492.188;32.204;10.836;23.046;37.088;164.988
29.531.250;30.067;0,741666667;15.720;38.004;181.777
29.570.313;26.099;-0.1984;15.110;40.446;216.880
29.609.375;24.573;0,529861111;20.299;41.972;246.795
29.648.438;27.320;4,98125;29.457;43.193;248.321
29.687.500;31.899;14.194;40.446;47.161;227.259
29.726.563;36.783;16.636;47.772;52.656;206.502
29.765.625;37.698;13.889;47.466;56.013;213.828
29.804.688;34.951;10.226;40.751;56.929;218.101
29.843.750;31.593;6,889583333;32.509;60.287;192.766
29.882.813;27.930;13.889;29.151;65.781;173.230
29.921.875;24.267;18.773;31.899;67.918;168.346
29.960.938;22.436;21.520;37.393;67.308;174.145
30.000.000;114.927;12.057;-12.973;3,921527778;29.151
30.039.063;134.158;23.657;-10.531;19.078;-12.057
30.078.125;162.546;36.172;-0.9615;32.509;-60.287
30.117.188;182.082;44.719;-0.9005;42.582;-103.938
30.156.250;179.335;48.382;-12.973;45.330;-141.178
30.195.313;163.462;44.414;-22.436;36.172;-173.535
30.234.375;154.304;36.477;-31.288;21.215;-177.198
30.273.438;158.883;30.678;-35.562;6,253472222;-154.304
30.312.500;163.767;29.762;-33.730;5,405555556;-141.178
30.351.563;156.441;31.593;-28.846;16.026;-139.957
30.390.625;142.705;31.593;-26.099;24.878;-121.337
30.429.688;137.515;28.846;-28.846;26.709;-116.758
30.468.750;141.789;25.794;-34.951;21.215;-159.188
30.507.813;144.231;22.741;-38.919;16.026;-195.208
30.546.875;139.042;18.162;-40.446;11.447;-197.650
30.585.938;130.800;14.499;-41.972;2,013888889;-182.692
30.625.000;127.747;15.720;-39.225;-0.3510;-146.062
30.664.063;129.884;21.215;-30.067;-0.4121;-104.853
30.703.125;132.021;27.015;-21.520;-0.3205;-114.621
30.742.188;129.884;30.372;-16.331;-0.4731;-175.061
30.781.250;124.084;28.541;-14.194;-0.7173;-219.322
30.820.313;119.811;23.657;-16.941;-0.7479;-224.512
30.859.375;120.116;20.604;-21.520;-0.4426;-215.659
30.898.438;122.558;19.689;-23.046;1,589583333;-195.818
30.937.500;123.474;17.552;-20.299;12.973;-165.293
30.976.563;122.558;14.499;-17.247;23.352;-139.347
31.015.625;120.421;12.363;-16.941;26.709;-129.884
31.054.688;121.337;12.668;-20.604;18.773;-141.178
31.093.750;125.305;14.805;-28.846;2,225694444;-166.209
31.132.813;127.747;16.941;-37.698;-13.278;-195.818
31.171.875;122.253;17.552;-44.414;-25.794;-217.491
31.210.938;112.485;16.026;-46.551;-31.288;-232.143
31.250.000;110.958;15.415;-41.056;-29.457;-247.100
31.289.063;115.232;15.415;-30.983;-24.267;-249.237
31.328.125;113.400;11.142;-25.794;-18.773;-239.774
31.367.188;105.769;2,4375;-27.930;-17.552;-253.510
31.406.250;97.833;-0.2595;-32.204;-19.383;-284.341
31.445.313;92.033;-0.5342;-33.120;-16.026;-286.172
31.484.375;86.538;-0.7173;-31.288;-0.5647;-273.657
31.523.438;81.044;-0.9005;-30.067;1,589583333;-257.173
31.562.500;80.739;-0.8089;-28.541;3,709722222;-221.764
31.601.563;84.707;-0.6563;-28.846;3,285416667;-200.092
31.640.625;88.675;-0.7173;-33.120;-0.0763;-193.376
31.679.688;90.201;-0.9005;-39.530;-10.836;-196.429
31.718.750;87.759;-11.142;-45.024;-19.689;-208.028
31.757.813;80.433;-12.668;-46.551;-24.878;-197.344
31.796.875;71.276;-12.973;-45.330;-26.404;-164.683
31.835.938;64.866;-11.142;-44.109;-26.099;-140.568
31.875.000;61.203;-0.7784;-43.498;-27.015;-147.589
31.914.063;61.203;-0.4121;-45.024;-29.457;-189.103
31.953.125;64.866;-0.2900;-50.824;-33.120;-240.079
31.992.188;66.392;-0.6868;-59.676;-38.309;-283.730
32.031.250;64.866;-13.889;-65.476;-40.140;-311.508
32.070.313;65.171;-20.299;-64.866;-35.256;-304.487
32.109.375;66.087;-24.267;-62.118;-26.404;-279.457
32.148.438;65.171;-23.657;-57.845;-16.331;-268.468
32.187.500;63.645;-21.215;-50.519;-0.3816;-275.794
32.226.563;62.118;-18.773;-43.803;5,617361111;-282.509
32.265.625;58.761;-16.026;-37.698;16.636;-266.331
32.304.688;53.571;-15.415;-32.509;21.215;-234.585
32.343.750;46.551;-16.941;-29.457;19.689;-205.586
32.382.813;39.835;-19.383;-29.151;14.805;-188.492
32.421.875;38.004;-23.352;-30.983;10.531;-176.893
32.460.938;40.140;-27.320;-35.562;3,497916667;-162.546
32.500.000;42.277;-28.846;-40.140;-0.0763;-148.504
32.539.063;41.361;-28.541;-41.361;-0.4121;-134.463
32.578.125;38.309;-27.015;-40.446;-0.5647;-113.400
32.617.188;32.814;-24.573;-41.056;-0.6258;-88.370
32.656.250;23.657;-24.878;-48.687;-0.7784;-62.118
32.695.313;16.941;-28.236;-61.813;-11.447;-43.803
32.734.375;16.941;-30.372;-70.360;-14.499;-51.129
32.773.438;18.468;-28.541;-70.360;-15.415;-63.339
32.812.500;16.636;-26.404;-63.339;-19.078;-53.266
32.851.563;11.447;-25.183;-52.961;-25.488;-35.867
32.890.625;3,285416667;-24.878;-45.330;-32.204;-34.951
32.929.688;-0.4731;-29.151;-45.635;-39.225;-46.551
32.968.750;-15.415;-37.698;-53.877;-44.109;-63.950
33.007.813;-22.741;-45.635;-62.729;-45.635;-79.212
33.046.875;-26.404;-49.298;-67.918;-44.109;-69.750
33.085.938;-28.541;-48.687;-69.750;-41.056;-45.940
33.125.000;-30.067;-45.635;-70.360;-38.614;-27.625
33.164.063;-31.899;-42.582;-69.139;-36.783;-17.247
33.203.125;-34.035;-39.835;-65.781;-34.646;-30.067
33.242.188;-33.730;-38.004;-63.950;-34.341;-59.066
33.281.250;-30.983;-37.698;-63.645;-36.783;-81.960
33.320.313;-29.151;-41.056;-64.866;-40.446;-95.696
33.359.375;-29.151;-44.109;-66.087;-41.056;-96.917
33.398.438;-30.678;-41.972;-64.866;-36.172;-77.381
33.437.500;-34.951;-37.393;-62.118;-31.593;-58.761
33.476.563;-36.783;-32.204;-59.676;-30.678;-70.360
33.515.625;-33.730;-27.930;-56.929;-27.015;-92.033
33.554.688;-30.067;-24.573;-52.656;-20.910;-94.170
33.593.750;-29.762;-21.520;-50.214;-19.689;-78.602
33.632.813;-29.457;-21.825;-50.214;-21.520;-62.729
33.671.875;-26.099;-24.878;-51.129;-20.299;-46.856
33.710.938;-23.352;-25.794;-49.908;-16.941;-19.689
33.750.000;-21.825;-24.267;-44.719;-14.194;2,4375
33.789.063;-18.162;-20.604;-37.088;-12.973;6,041666667
33.828.125;-10.531;-14.805;-31.288;-11.752;-0.6868
33.867.188;-0.1374;-10.226;-29.457;-0.8394;-29.762
33.906.250;4,557638889;-0.6258;-27.320;-0.3205;-46.245
33.945.313;11.142;-0.2289;-23.046;1,377777778;-60.592
33.984.375;6,253472222;0,954166667;-18.468;6,041666667;-65.476
34.023.438;0,10625;4,345833333;-14.805;16.026;-61.508
34.062.500;-0.8700;12.057;-11.142;23.657;-44.414
34.101.563;-11.447;18.162;-0.7479;30.983;-13.889
34.140.625;-0.9921;23.657;-0.4426;38.614;1,165972222
34.179.688;-0.9615;27.320;-0.5342;44.109;0,318055556
34.218.750;-0.9921;27.015;-0.7173;45.024;5,829166667
34.257.813;-11.447;24.267;-0.5952;43.803;31.593
34.296.875;-15.720;18.162;-0.4426;43.193;47.772
34.335.938;-21.215;5,617361111;-0.6563;41.056;56.319
34.375.000;-23.657;-0.1679;-12.057;37.698;65.781
34.414.063;-22.131;-0.6258;-13.889;36.172;59.982
34.453.125;-19.994;-0.6563;-0.9005;34.951;38.309
34.492.188;-19.383;-0.2595;-0.4121;32.814;15.415
34.531.250;-19.383;1,802083333;-0.1984;29.762;-0.6563
34.570.313;-19.689;2,013888889;-0.3816;24.573;-20.910
34.609.375;-23.046;-0.2595;-11.142;18.468;-25.794
34.648.438;-29.151;-0.8089;-21.520;13.584;-29.762
34.687.500;-34.341;-0.8089;-29.151;10.836;-31.288
34.726.563;-35.562;-0.3510;-30.678;6,253472222;-38.004
34.765.625;-33.425;2,225694444;-28.236;4,769444444;-39.835
34.804.688;-30.067;6,041666667;-26.709;3,285416667;-36.783
34.843.750;-26.099;11.447;-28.236;0,741666667;-38.309
34.882.813;-22.741;6,677083333;-29.457;-0.3816;-29.457
34.921.875;-21.520;3,285416667;-28.236;-0.9005;-20.299
34.960.938;-23.046;0,529861111;-27.320;-10.531;-28.541
35.000.000;-24.573;0,318055556;-21.520;-0.6868;-39.835
35.039.063;-24.878;2,65;-11.142;0,318055556;-29.151
35.078.125;-24.573;10.226;-0.3510;4,345833333;-0.7784
35.117.188;-21.520;16.941;-0.1679;4,345833333;-0.2289
35.156.250;-17.552;19.994;-0.5037;0,529861111;-0.8700
35.195.313;-15.720;16.636;-10.836;-0.6258;-0.2289
35.234.375;-16.331;6,253472222;-13.889;-10.836;14.805
35.273.438;-18.773;0,954166667;-14.499;-11.447;18.773
35.312.500;-21.520;-0.2595;-12.973;-0.7784;10.226
35.351.563;-22.131;-0.3816;-0.9615;-0.2900;5,829166667
35.390.625;-19.383;-0.2289;-0.4731;0,10625;22.741
35.429.688;-16.636;2,013888889;-0.0153;2,225694444;53.571
35.468.750;-17.247;5,829166667;1,377777778;5,617361111;84.402
35.507.813;-21.215;6,465277778;1,802083333;12.973;90.201
35.546.875;-23.962;5,617361111;2,861805556;16.026;84.402
35.585.938;-23.657;4,98125;6,889583333;18.468;91.117
35.625.000;-22.436;6,253472222;16.941;23.046;84.096
35.664.063;-18.773;12.973;19.383;26.099;51.435
35.703.125;-12.057;16.636;18.773;24.573;22.131
35.742.188;-0.2900;16.636;18.162;17.552;-0.7173
35.781.250;0,529861111;14.194;13.278;4,557638889;-43.193
35.820.313;-0.7479;6,889583333;2,225694444;-0.3816;-67.002
35.859.375;-20.299;2,4375;-0.6868;-12.363;-73.413
35.898.438;-30.372;-0.2900;-13.584;-17.552;-56.624
35.937.500;-37.393;-0.4426;-15.415;-15.720;-15.720
35.976.563;-38.614;0,10625;-11.752;-0.9005;34.951
36.015.625;-36.477;3,497916667;-0.4426;-0.2900;76.160
36.054.688;-36.477;3,709722222;0,529861111;-0.1374;76.465
36.093.750;-36.783;3,285416667;-0.0153;-0.2900;14.499
36.132.813;-34.035;3,285416667;-0.4731;-0.2595;-52.045
36.171.875;-30.372;2,4375;-0.8700;1,165972222;-57.234
36.210.938;-25.794;0,954166667;-0.7784;4,98125;-20.604
36.250.000;-20.604;0,318055556;-0.1984;12.057;27.015
36.289.063;-19.078;-0.1068;3,285416667;15.720;81.349
36.328.125;-24.573;-0.4426;5,405555556;16.331;127.442
36.367.188;-31.593;-0.7479;2,013888889;10.836;124.695
36.406.250;-35.867;-0.8700;-0.6563;0,741666667;67.613
36.445.313;-40.751;-10.226;-14.499;-0.6563;12.668
36.484.375;-50.519;-11.752;-19.689;-11.447;-0.0153
36.523.438;-62.424;-11.447;-21.825;-13.278;21.215
36.562.500;-70.665;-0.9005;-20.910;-0.9615;50.519
36.601.563;-74.328;-0.7784;-18.162;-0.1984;50.519
36.640.625;-74.023;-0.6868;-13.584;2,65;21.520
36.679.688;-67.918;-0.5647;-0.6563;3,073611111;13.584
36.718.750;-59.982;-0.6258;-0.1068;1,589583333;23.962
36.757.813;-55.098;-0.9921;-0.0153;-0.0763;2,4375
36.796.875;-52.350;-15.110;-0.1679;-0.7479;-37.698
36.835.938;-50.214;-19.078;-0.3205;-17.552;-72.192
36.875.000;-48.077;-19.994;-0.3510;-23.962;-96.612
36.914.063;-48.382;-19.078;-0.2900;-22.131;-92.338
36.953.125;-51.129;-16.636;-0.1984;-15.415;-49.603
36.992.188;-51.435;-12.363;-0.0153;-0.5952;15.415
37.031.250;-48.993;-0.6868;2,65;1,802083333;67.002
37.070.313;-48.077;-0.1374;6,465277778;3,497916667;79.823
37.109.375;-48.993;1,802083333;12.363;0,529861111;71.886
37.148.438;-48.382;4,769444444;14.499;-0.4426;56.319
37.187.500;-43.193;6,889583333;16.636;-0.7784;36.172
37.226.563;-38.004;10.226;15.110;-0.5952;23.352
37.265.625;-32.814;6,677083333;12.057;2,225694444;20.299
37.304.688;-23.352;10.531;14.194;16.026;24.878
37.343.750;-16.331;10.531;18.773;28.541;42.582
37.382.813;-19.994;5,19375;20.604;36.477;66.697
37.421.875;-27.625;3,921527778;21.520;41.667;77.686
37.460.938;-30.372;5,19375;24.267;47.161;77.381
37.500.000;-28.236;5,829166667;28.541;52.045;76.160
37.539.063;-24.267;3,073611111;32.509;52.656;52.656
37.578.125;-16.941;0,954166667;35.562;45.940;-13.584
37.617.188;-0.7479;2,4375;38.614;36.172;-68.529
37.656.250;-0.2595;6,041666667;41.361;31.593;-57.234
37.695.313;-0.5037;10.531;43.498;32.509;2,861805556
37.734.375;-11.447;6,889583333;44.109;32.509;81.044
37.773.438;-16.636;5,617361111;44.719;31.593;139.652
37.812.500;-18.162;2,4375;44.109;30.983;158.578
37.851.563;-18.773;-0.1679;40.140;29.762;137.515
37.890.625;-19.994;-0.4731;33.120;25.183;87.759
37.929.688;-19.689;-0.1984;27.320;18.162;41.667
37.968.750;-19.383;2,225694444;21.520;12.668;31.593
38.007.813;-21.520;2,861805556;10.836;4,769444444;49.603
38.046.875;-25.488;0,10625;-0.0763;-0.0458;62.118
38.085.938;-30.678;-0.4426;-0.7173;-0.8700;54.487
38.125.000;-36.172;-0.6563;-10.531;-11.752;44.719
38.164.063;-38.919;-0.5647;-10.226;-0.6258;41.056
38.203.125;-36.477;-0.3816;-0.3205;1,589583333;30.067
38.242.188;-30.678;-0.5037;3,285416667;5,617361111;19.383
38.281.250;-25.488;-0.7173;5,405555556;12.973;21.215
38.320.313;-23.962;-0.4731;5,405555556;16.636;26.709
38.359.375;-21.520;0,741666667;11.142;15.720;25.794
38.398.438;-13.584;2,4375;16.026;6,465277778;25.488
38.437.500;-0.9310;0,318055556;16.331;1,589583333;16.026
38.476.563;-11.447;-0.3205;11.752;-0.2595;-0.9921
38.515.625;-10.531;-0.5647;6,253472222;-0.7479;-27.320
38.554.688;-0.2595;-0.6258;5,617361111;-11.447;-13.584
38.593.750;4,557638889;-0.3205;4,98125;-10.531;32.204
38.632.813;6,677083333;-0.1374;4,769444444;-0.5342;87.149
38.671.875;3,709722222;-0.3510;6,253472222;1,165972222;129.274
38.710.938;0,10625;-0.7784;13.278;6,041666667;136.294
38.750.000;-0.1374;-11.142;19.994;15.110;103.938
38.789.063;-0.0763;-10.531;25.794;20.604;62.424
38.828.125;-0.3510;-0.5647;30.372;25.488;6,041666667
38.867.188;-0.5952;0,318055556;37.393;32.509;-37.088
38.906.250;-0.5037;4,133333333;42.888;38.004;-20.299
38.945.313;-0.3816;3,921527778;40.751;38.004;31.593
38.984.375;-0.2289;0,529861111;34.951;34.951;69.139
39.023.438;0,529861111;-0.2595;30.372;30.067;96.917
39.062.500;2,4375;-0.6258;25.794;22.741;110.348
39.101.563;4,98125;-0.9615;22.131;16.636;87.149
39.140.625;12.057;-0.8394;20.604;16.026;51.129
39.179.688;12.668;-0.6563;18.162;20.299;51.435
39.218.750;6,677083333;-0.6258;16.636;24.267;90.507
39.257.813;10.531;-0.4731;19.383;28.541;119.505
39.296.875;15.415;-0.1984;27.625;30.678;120.726
39.335.938;17.552;-0.2289;34.646;29.151;113.095
39.375.000;13.584;-0.5342;37.698;25.488;99.054
39.414.063;5,19375;-0.6258;38.004;21.520;76.770
39.453.125;-0.0458;-0.4731;33.425;17.857;49.298
39.492.188;-12.363;-0.2595;25.488;14.805;12.057
39.531.250;-26.404;-0.0458;19.078;12.973;-40.140
39.570.313;-38.919;-0.0763;13.278;10.531;-95.391
39.609.375;-52.045;-0.6868;3,285416667;6,465277778;-121.947
39.648.438;-65.476;-15.415;-0.2289;11.142;-111.874
39.687.500;-73.107;-19.994;-0.1374;12.363;-106.685
39.726.563;-74.939;-20.910;2,65;14.499;-141.484
39.765.625;-74.328;-19.078;6,465277778;19.078;-168.040
39.804.688;-71.886;-17.552;12.057;23.657;-135.989
39.843.750;-70.055;-20.299;12.363;24.267;-86.538
39.882.813;-73.718;-25.794;6,677083333;19.078;-54.487
39.921.875;-78.602;-29.762;5,19375;12.363;-29.762
39.960.938;-74.939;-29.151;11.447;6,889583333;-19.689
40.000.000;104.853;6,889583333;-11.752;3,285416667;29.151
40.039.063;91.728;13.584;-0.6258;19.078;-25.488
40.078.125;74.023;13.889;-0.1984;36.172;-92.338
40.117.188;55.403;11.142;-0.0458;46.551;-139.042
40.156.250;38.614;4,345833333;-0.2289;49.603;-166.209
40.195.313;27.320;-0.1984;-0.5952;48.382;-172.924
40.234.375;23.352;-11.142;-0.8394;45.940;-151.557
40.273.438;26.709;-12.973;-0.6258;46.856;-122.253
40.312.500;30.678;-0.9310;-0.0763;51.129;-113.400
40.351.563;29.457;-0.5647;1,377777778;52.656;-131.716
40.390.625;27.015;-0.3205;0,10625;48.077;-158.578
40.429.688;30.067;-0.1984;-0.4426;41.056;-173.535
40.468.750;37.088;-0.1984;-0.6258;37.393;-175.672
40.507.813;44.414;0,318055556;1,589583333;40.751;-174.451
40.546.875;52.350;5,19375;18.773;49.908;-164.072
40.585.938;63.034;16.636;34.341;60.592;-160.409
40.625.000;74.328;24.573;41.361;68.834;-190.018
40.664.063;83.486;28.236;40.446;73.718;-222.375
40.703.125;87.149;26.709;36.172;76.465;-231.227
40.742.188;82.875;19.689;30.067;75.244;-228.480
40.781.250;70.971;4,769444444;23.657;71.581;-214.438
40.820.313;59.371;-0.3510;21.520;70.665;-180.556
40.859.375;58.761;-0.4731;25.183;72.802;-132.631
40.898.438;70.055;-0.1374;29.457;75.855;-93.254
40.937.500;83.181;2,013888889;31.288;80.128;-75.855
40.976.563;88.675;5,617361111;27.015;80.128;-81.960
41.015.625;89.286;5,829166667;16.331;72.497;-96.001
41.054.688;92.338;3,285416667;3,073611111;60.897;-109.127
41.093.750;96.612;-0.0153;-0.5037;47.772;-128.663
41.132.813;98.138;-0.7784;-11.447;36.477;-150.031
41.171.875;92.643;-12.668;-14.194;31.288;-158.272
41.210.938;83.486;-10.226;-13.584;33.730;-155.220
41.250.000;77.381;-0.1984;-10.531;37.698;-155.220
41.289.063;72.497;4,133333333;-0.6258;37.393;-140.568
41.328.125;68.834;13.278;-0.0458;33.425;-108.516
41.367.188;69.139;19.689;2,861805556;28.541;-82.265
41.406.250;75.244;19.994;1,589583333;20.910;-73.107
41.445.313;83.791;12.057;-0.3816;12.973;-85.012
41.484.375;88.980;3,285416667;-0.9615;4,769444444;-115.537
41.523.438;87.149;2,013888889;-15.415;1,165972222;-149.420
41.562.500;83.486;3,497916667;-19.383;-0.0458;-166.514
41.601.563;84.707;3,497916667;-19.383;0,741666667;-164.377
41.640.625;88.675;0,741666667;-18.773;2,65;-146.062
41.679.688;93.254;-0.1679;-16.026;3,921527778;-122.863
41.718.750;94.780;-0.0763;-11.447;6,677083333;-104.243
41.757.813;92.033;-0.1068;-0.8700;14.499;-90.507
41.796.875;89.286;-0.3510;-0.8700;15.720;-76.770
41.835.938;85.317;-0.3816;-0.8089;20.604;-48.687
41.875.000;70.971;-0.5647;-0.9310;27.625;-27.930
41.914.063;46.551;-12.973;-16.636;26.099;-30.067
41.953.125;27.320;-23.046;-25.183;19.994;-34.646
41.992.188;20.604;-33.425;-30.983;12.057;-50.519
42.031.250;16.026;-39.530;-36.477;-0.0458;-80.128
42.070.313;6,677083333;-36.477;-38.309;-0.9005;-117.979
42.109.375;2,861805556;-30.372;-32.204;-0.5952;-166.514
42.148.438;-13.584;-31.288;-26.404;1,165972222;-210.165
42.187.500;-45.940;-37.698;-26.404;3,709722222;-239.469
42.226.563;-79.212;-45.330;-28.846;3,285416667;-244.658
42.265.625;-103.632;-53.571;-33.120;2,4375;-242.521
42.304.688;-114.621;-61.813;-39.530;2,4375;-275.794
42.343.750;-119.505;-69.750;-45.635;2,4375;-332.570
42.382.813;-130.495;-77.381;-52.656;-0.0763;-374.389
42.421.875;-145.757;-84.402;-60.287;-0.8700;-399.725
42.460.938;-157.662;-89.896;-68.834;-16.026;-389.652
42.500.000;-174.451;-95.696;-81.044;-25.794;-337.454
42.539.063;-200.397;-104.548;-94.475;-38.919;-288.919
42.578.125;-220.543;-112.485;-104.548;-50.214;-265.415
42.617.188;-234.280;-121.947;-116.758;-61.813;-284.341
42.656.250;-248.016;-135.684;-134.463;-78.602;-349.054
42.695.313;-260.226;-147.589;-152.778;-94.475;-423.230
42.734.375;-273.962;-154.304;-164.377;-101.190;-491.911
42.773.438;-289.530;-161.935;-170.482;-103.632;-552.656
42.812.500;-317.918;-175.366;-177.198;-108.516;-602.411
42.851.563;-354.243;-189.408;-180.556;-111.874;-626.526
42.890.625;-371.032;-194.597;-179.335;-109.737;-610.043
42.929.688;-361.569;-189.103;-178.114;-102.411;-573.413
42.968.750;-348.748;-181.471;-178.419;-96.917;-537.698
43.007.813;-358.517;-179.945;-182.692;-100.275;-513.889
43.046.875;-373.168;-181.166;-186.966;-108.211;-516.331
43.085.938;-375.916;-180.861;-186.966;-114.621;-542.582
43.125.000;-378.968;-181.777;-184.829;-114.316;-531.899
43.164.063;-388.431;-180.861;-181.777;-107.906;-444.292
43.203.125;-397.894;-177.808;-179.640;-103.632;-342.643
43.242.188;-394.536;-173.840;-177.808;-104.548;-240.995
43.281.250;-373.474;-171.093;-173.535;-105.769;-131.105
43.320.313;-345.696;-166.514;-163.462;-102.106;-68.529
43.359.375;-320.665;-157.662;-149.115;-96.917;-71.886
43.398.438;-299.298;-150.031;-138.431;-94.780;-105.159
43.437.500;-277.625;-141.789;-134.768;-93.254;-128.663
43.476.563;-256.258;-129.274;-132.937;-90.507;-150.946
43.515.625;-242.827;-118.590;-132.631;-87.454;-204.365
43.554.688;-237.332;-116.453;-136.294;-85.928;-261.447
43.593.750;-227.259;-117.369;-137.821;-83.486;-270.910
43.632.813;-199.786;-109.737;-128.663;-79.212;-239.164
43.671.875;-165.293;-93.559;-112.485;-74.023;-190.324
43.710.938;-142.399;-76.770;-98.748;-70.971;-121.337
43.750.000;-126.832;-62.729;-89.286;-70.055;-21.215
43.789.063;-111.264;-52.656;-83.181;-71.276;84.096
43.828.125;-102.717;-46.245;-81.654;-74.939;148.504
43.867.188;-97.527;-41.972;-81.349;-73.718;139.957
43.906.250;-87.149;-36.783;-74.634;-67.308;63.034
43.945.313;-79.518;-29.151;-65.171;-63.034;-0.9005
43.984.375;-74.328;-17.552;-54.792;-59.982;-0.2595
44.023.438;-63.339;-0.3205;-42.277;-56.929;67.613
44.062.500;-54.487;3,285416667;-35.256;-56.013;143.926
44.101.563;-48.687;3,497916667;-35.256;-56.929;211.691
44.140.625;-32.814;5,617361111;-33.120;-53.877;269.383
44.179.688;-0.5342;19.689;-24.267;-42.888;288.614
44.218.750;18.162;33.425;-12.668;-28.236;275.488
44.257.813;17.552;36.783;-0.6258;-21.215;244.658
44.296.875;-0.4121;32.204;-0.5647;-24.878;185.745
44.335.938;-18.468;32.509;-0.3816;-32.204;128.968
44.375.000;-0.5647;40.751;2,4375;-38.309;105.464
44.414.063;26.709;48.993;12.363;-39.530;108.516
44.453.125;57.540;48.993;12.057;-39.225;130.495
44.492.188;78.297;40.446;0,318055556;-43.803;164.377
44.531.250;90.507;31.593;-13.278;-47.161;200.092
44.570.313;93.559;32.509;-16.331;-42.277;211.081
44.609.375;90.201;42.277;-0.7173;-33.730;197.344
44.648.438;83.181;52.045;3,921527778;-23.046;200.702
44.687.500;74.634;57.845;14.805;-12.973;212.912
44.726.563;67.613;57.234;15.720;-0.9921;206.197
44.765.625;63.034;51.435;13.889;-0.6868;194.292
44.804.688;63.034;47.466;16.941;0,954166667;191.545
44.843.750;68.223;47.161;21.825;3,709722222;201.618
44.882.813;77.076;48.993;25.183;1,165972222;244.048
44.921.875;83.486;53.266;30.372;0,954166667;312.729
44.960.938;77.381;54.487;33.730;3,921527778;343.254
45.000.000;65.171;52.961;33.425;6,465277778;304.487
45.039.063;60.287;58.761;38.919;18.162;227.869
45.078.125;68.834;72.497;52.045;29.762;148.199
45.117.188;87.759;81.960;64.560;34.035;131.716
45.156.250;99.359;78.297;66.392;32.204;199.786
45.195.313;99.054;69.444;61.203;30.983;282.204
45.234.375;103.327;67.613;59.066;31.288;310.897
45.273.438;116.758;74.939;59.066;26.099;226.954
45.312.500;132.326;87.149;57.540;13.584;57.845
45.351.563;143.010;98.138;58.761;1,377777778;-78.907
45.390.625;138.736;98.748;61.203;-0.2595;-124.084
45.429.688;121.947;91.117;59.676;-0.1374;-79.212
45.468.750;101.496;78.907;51.435;-0.2595;16.941
45.507.813;85.317;64.866;40.446;-0.6563;99.969
45.546.875;76.160;56.013;33.425;-0.9310;159.799
45.585.938;73.107;53.877;29.457;-12.363;195.513
45.625.000;66.392;52.350;22.131;-18.162;208.333
45.664.063;52.350;48.077;15.110;-23.657;247.711
45.703.125;41.361;40.751;12.057;-25.183;308.150
45.742.188;43.498;29.457;4,133333333;-26.709;351.190
45.781.250;54.182;24.267;0,741666667;-29.457;375.916
45.820.313;59.371;29.457;4,769444444;-30.067;401.557
45.859.375;61.508;38.919;22.131;-23.657;444.597
45.898.438;68.223;49.298;42.277;-0.8700;448.565
45.937.500;86.844;57.234;59.676;2,4375;336.538
45.976.563;100.885;56.929;65.171;4,769444444;178.114
46.015.625;88.980;47.466;59.066;3,921527778;90.812
46.054.688;67.918;37.698;48.687;3,073611111;90.201
46.093.750;45.940;29.762;36.477;1,165972222;138.736
46.132.813;26.404;24.878;25.183;-0.4121;216.880
46.171.875;25.794;28.236;21.520;-0.7784;299.298
46.210.938;41.056;36.172;23.657;-0.8700;342.033
46.250.000;49.298;41.667;25.794;-0.8700;349.664
46.289.063;47.161;43.803;28.846;-0.0458;362.485
46.328.125;43.498;40.446;32.814;6,253472222;372.863
46.367.188;34.951;33.425;33.425;6,465277778;345.085
46.406.250;27.015;30.678;34.951;4,769444444;288.004
46.445.313;30.372;32.204;39.530;4,98125;232.753
46.484.375;40.140;36.477;43.803;5,405555556;205.891
46.523.438;54.487;46.551;48.687;6,041666667;204.060
46.562.500;72.802;57.540;50.824;5,405555556;226.648
46.601.563;83.791;59.066;43.193;1,589583333;266.026
46.640.625;84.096;53.266;34.341;-0.3816;284.951
46.679.688;80.433;49.908;35.867;-0.5037;286.783
46.718.750;73.413;48.687;41.667;-0.2900;286.477
46.757.813;60.287;43.498;41.972;-0.1984;301.129
46.796.875;47.772;35.867;37.088;-0.1984;361.874
46.835.938;45.940;32.814;37.698;0,318055556;443.376
46.875.000;56.013;38.919;49.908;12.057;453.144
46.914.063;70.665;51.129;70.360;34.646;352.411
46.953.125;85.928;63.034;91.728;60.897;203.144
46.992.188;99.969;72.497;108.211;85.012;100.275
47.031.250;107.601;79.823;117.369;104.853;92.949
47.070.313;106.685;82.570;119.811;114.927;163.156
47.109.375;99.664;82.570;120.421;120.116;250.458
47.148.438;91.728;81.960;119.505;118.590;263.584
47.187.500;89.286;80.433;110.958;104.243;187.271
47.226.563;92.949;76.160;93.559;77.686;101.190
47.265.625;94.780;65.476;71.886;47.466;67.002
47.304.688;88.370;48.077;51.435;22.741;101.190
47.343.750;81.044;32.814;35.256;5,19375;175.672
47.382.813;85.317;27.930;26.404;0,10625;255.647
47.421.875;102.106;31.899;22.131;-0.3205;304.792
47.460.938;118.895;37.393;21.215;-0.3816;293.803
47.500.000;118.590;39.225;21.215;-0.4426;231.532
47.539.063;102.411;35.867;18.773;-0.7479;139.652
47.578.125;91.422;36.172;20.299;-0.5952;74.023
47.617.188;94.780;42.277;27.320;1,802083333;56.624
47.656.250;104.853;48.687;31.288;10.226;44.109
47.695.313;115.232;51.435;28.541;11.142;38.919
47.734.375;120.116;47.161;24.573;6,677083333;74.328
47.773.438;115.232;40.446;23.352;6,253472222;115.537
47.812.500;109.432;37.088;26.099;6,041666667;83.791
47.851.563;111.569;36.172;31.288;6,465277778;-13.278
47.890.625;113.400;33.730;32.814;11.447;-91.422
47.929.688;110.958;30.372;34.341;16.636;-101.190
47.968.750;109.737;29.762;39.530;24.878;-59.371
48.007.813;108.516;31.593;48.382;38.614;-26.404
48.046.875;108.211;33.730;54.792;53.571;-14.499
48.085.938;108.516;32.509;51.435;54.487;26.709
48.125.000;103.022;28.236;40.446;42.582;98.748
48.164.063;95.391;25.183;27.930;30.983;179.945
48.203.125;90.201;23.352;18.468;23.657;240.079
48.242.188;86.844;23.352;14.805;19.078;249.847
48.281.250;85.012;25.794;13.889;19.994;258.394
48.320.313;87.149;31.593;16.026;27.625;298.382
48.359.375;97.222;40.140;21.825;36.783;304.182
48.398.438;108.211;46.245;29.457;43.193;221.154
48.437.500;107.601;45.635;36.477;48.993;62.118
48.476.563;101.190;43.498;40.751;52.656;-121.337
48.515.625;97.222;43.193;40.751;52.045;-247.100
48.554.688;90.201;38.309;36.477;46.856;-281.899
48.593.750;84.402;24.573;27.015;35.256;-274.878
48.632.813;84.707;11.142;18.162;20.604;-277.320
48.671.875;82.265;11.752;19.689;13.889;-281.593
48.710.938;78.907;22.436;30.067;18.773;-248.016
48.750.000;83.486;32.204;39.225;27.930;-211.081
48.789.063;92.033;38.919;41.667;33.120;-206.807
48.828.125;97.222;43.193;37.088;30.678;-216.575
48.867.188;97.222;42.582;25.794;20.299;-218.407
48.906.250;93.559;34.341;12.668;5,19375;-189.408
48.945.313;88.980;22.741;2,013888889;-0.1374;-131.105
48.984.375;79.518;12.057;-0.2900;-0.2900;-80.128
49.023.438;66.697;6,041666667;-0.1679;4,98125;-44.414
49.062.500;64.255;14.805;4,769444444;22.131;3,709722222
49.101.563;71.581;22.131;12.973;27.015;57.234
49.140.625;81.349;29.151;18.773;25.183;81.044
49.179.688;88.370;37.393;28.541;24.573;73.413
49.218.750;87.454;39.225;34.646;23.046;22.131
49.257.813;83.486;30.983;34.341;20.910;-103.327
49.296.875;83.181;20.910;33.425;18.162;-297.466
49.335.938;87.759;16.026;34.646;14.194;-484.890
49.375.000;94.780;16.941;34.646;11.142;-562.424
49.414.063;96.612;17.857;32.204;11.142;-499.542
49.453.125;88.675;13.889;27.625;6,465277778;-388.736
49.492.188;84.096;12.668;25.183;5,19375;-322.497
49.531.250;95.085;18.773;22.131;2,4375;-320.360
49.570.313;116.453;25.183;14.194;-0.6563;-335.317
49.609.375;132.326;32.509;13.584;-0.9921;-311.203
49.648.438;129.884;39.530;22.436;1,802083333;-248.016
49.687.500;118.590;44.109;29.151;23.352;-166.819
49.726.563;110.043;48.993;29.151;45.330;-102.717
49.765.625;104.243;51.435;25.794;61.508;-86.233
49.804.688;101.801;49.298;22.741;67.308;-110.958
49.843.750;105.464;41.972;18.468;62.118;-130.495
49.882.813;107.906;27.320;3,921527778;41.056;-68.834
49.921.875;99.054;6,889583333;-0.9615;15.110;34.646
49.960.938;89.286;1,589583333;-14.194;1,377777778;72.802
50.000.000;112.485;13.278;-0.8089;3,497916667;5,405555556
50.039.063;118.895;24.878;3,497916667;17.857;-92.033
50.078.125;122.558;32.814;12.668;28.846;-214.744
50.117.188;126.526;37.393;11.752;31.288;-335.012
50.156.250;131.410;37.393;4,557638889;25.183;-388.736
50.195.313;126.526;32.814;-0.2900;16.331;-329.823
50.234.375;112.179;26.709;-18.468;3,921527778;-235.501
50.273.438;98.443;19.994;-33.120;-0.8089;-198.565
50.312.500;96.306;14.499;-37.088;-15.415;-227.869
50.351.563;106.685;6,889583333;-33.730;-15.720;-284.951
50.390.625;115.232;6,677083333;-28.541;-17.552;-329.212
50.429.688;115.232;13.278;-24.267;-20.604;-333.181
50.468.750;116.148;15.720;-23.352;-24.267;-289.225
50.507.813;115.537;15.415;-20.604;-24.878;-241.300
50.546.875;106.685;14.805;-12.668;-16.941;-203.755
50.585.938;94.475;14.499;-0.5342;-0.3510;-150.336
50.625.000;89.896;15.720;-0.1068;4,133333333;-103.327
50.664.063;99.969;23.046;4,133333333;12.057;-66.087
50.703.125;112.485;32.204;12.668;17.552;-19.078
50.742.188;117.674;33.730;3,285416667;15.415;5,19375
50.781.250;123.474;29.151;-10.226;1,802083333;35.867
50.820.313;129.274;26.709;-13.889;-0.7173;69.444
50.859.375;133.547;30.678;-0.3816;-0.3205;56.624
50.898.438;134.768;38.309;6,465277778;11.142;23.962
50.937.500;131.105;41.972;19.994;25.183;-42.888
50.976.563;127.442;43.498;26.099;32.509;-149.115
51.015.625;126.526;45.330;20.604;30.067;-203.144
51.054.688;126.526;44.719;6,041666667;25.183;-179.335
51.093.750;121.642;36.477;-0.1374;21.825;-157.357
51.132.813;114.011;24.573;-0.9005;14.805;-204.976
51.171.875;109.432;18.162;-10.531;5,19375;-251.984
51.210.938;105.464;16.331;-0.9310;1,377777778;-231.838
51.250.000;100.885;15.415;-0.4731;0,954166667;-168.956
51.289.063;100.580;16.941;3,497916667;5,19375;-91.422
51.328.125;104.548;21.520;12.973;12.363;-55.708
51.367.188;114.011;25.488;14.194;10.836;-88.980
51.406.250;126.221;25.488;10.836;3,285416667;-170.788
51.445.313;132.326;20.604;3,285416667;-0.1679;-261.752
51.484.375;131.716;15.415;-0.1068;-11.142;-280.067
51.523.438;122.863;11.447;-0.5342;-17.857;-210.470
51.562.500;104.243;5,617361111;-0.8394;-16.636;-112.790
51.601.563;93.254;4,345833333;-0.9310;-10.226;-65.171
51.640.625;101.801;3,921527778;-0.7173;-0.4121;-103.022
51.679.688;119.200;5,829166667;-0.3816;-0.1068;-149.725
51.718.750;130.189;15.415;-0.6563;-0.3510;-162.851
51.757.813;128.053;17.552;-17.552;-11.142;-136.294
51.796.875;115.232;11.142;-27.015;-19.994;-87.149
51.835.938;94.170;0,10625;-33.120;-26.404;-74.939
51.875.000;70.055;-11.142;-42.582;-31.593;-99.054
51.914.063;60.897;-14.499;-47.161;-30.678;-98.138
51.953.125;67.613;-0.5952;-38.309;-17.247;-52.045
51.992.188;76.465;2,861805556;-25.794;-0.3510;-37.698
52.031.250;82.265;6,253472222;-20.910;-0.1984;-101.496
52.070.313;85.317;4,769444444;-25.183;-10.836;-201.923
52.109.375;87.454;0,10625;-31.288;-21.825;-260.226
52.148.438;87.149;-0.3205;-30.678;-25.183;-256.563
52.187.500;84.096;0,10625;-27.625;-23.352;-228.785
52.226.563;81.960;1,802083333;-31.288;-24.267;-230.922
52.265.625;80.128;0,954166667;-39.530;-31.288;-304.182
52.304.688;77.076;1,802083333;-42.582;-40.140;-373.168
52.343.750;72.192;3,709722222;-38.309;-43.498;-358.517
52.382.813;68.834;5,19375;-32.204;-41.972;-297.466
52.421.875;70.665;6,041666667;-28.541;-34.646;-248.321
52.460.938;72.802;13.278;-19.383;-14.194;-193.681
52.500.000;73.413;23.657;-0.4731;5,405555556;-120.116
52.539.063;73.107;31.899;-0.0153;16.026;-80.739
52.578.125;71.886;32.204;-0.6868;10.836;-116.148
52.617.188;79.212;30.678;-12.668;0,954166667;-160.714
52.656.250;94.780;34.035;-13.889;1,802083333;-133.547
52.695.313;103.632;34.951;-16.636;12.973;-92.033
52.734.375;100.275;26.404;-22.436;20.604;-88.980
52.773.438;86.233;14.194;-27.625;22.131;-93.254
52.812.500;70.360;2,861805556;-34.646;13.584;-112.179
52.851.563;65.171;0,954166667;-38.004;2,65;-121.642
52.890.625;68.529;4,133333333;-31.899;3,285416667;-94.780
52.929.688;76.465;10.836;-24.573;5,617361111;-98.138
52.968.750;86.538;16.941;-21.520;6,253472222;-114.011
53.007.813;88.980;22.131;-22.131;10.836;-45.024
53.046.875;88.370;23.962;-24.878;12.668;63.034
53.085.938;91.728;22.741;-31.899;4,98125;70.055
53.125.000;99.664;19.383;-40.140;-0.0763;-0.9005
53.164.063;103.327;17.552;-38.614;0,741666667;-46.245
53.203.125;98.748;18.773;-27.320;11.752;-15.720
53.242.188;92.949;19.689;-15.720;19.994;6,889583333
53.281.250;93.864;19.078;-10.226;21.215;6,889583333
53.320.313;104.548;22.741;-0.1679;19.078;31.899
53.359.375;121.947;27.625;3,709722222;16.331;64.255
53.398.438;131.410;22.131;-0.1068;10.836;92.338
53.437.500;125.000;6,465277778;-11.752;3,921527778;110.043
53.476.563;118.590;3,073611111;-14.499;2,013888889;94.170
53.515.625;121.032;11.752;-11.447;3,921527778;96.917
53.554.688;118.284;20.910;-0.9921;14.194;90.201
53.593.750;107.295;23.657;-15.110;18.773;31.593
53.632.813;96.917;23.046;-19.383;18.773;47.466
53.671.875;92.949;24.267;-19.383;16.026;146.673
53.710.938;94.475;24.878;-20.299;10.836;199.786
53.750.000;94.475;21.520;-20.910;10.531;189.408
53.789.063;93.864;20.299;-15.720;17.857;126.221
53.828.125;98.443;24.878;-0.7173;29.762;1,165972222
53.867.188;102.717;26.099;-0.4121;39.225;-85.928
53.906.250;97.222;21.520;-0.4426;47.161;-66.697
53.945.313;90.812;17.857;-0.0763;55.708;-0.9921
53.984.375;92.338;14.805;1,802083333;59.371;14.194
54.023.438;94.475;10.836;4,98125;59.371;11.447
54.062.500;95.085;16.331;21.825;64.866;40.446
54.101.563;94.170;29.151;37.698;75.244;75.549
54.140.625;92.033;36.172;42.582;84.402;102.106
54.179.688;91.728;38.919;46.856;92.338;169.261
54.218.750;96.001;41.972;51.435;95.391;198.565
54.257.813;101.801;36.477;41.056;82.265;113.706
54.296.875;103.632;20.910;16.636;59.371;17.857
54.335.938;97.527;10.836;0,741666667;44.414;19.383
54.375.000;81.349;6,889583333;-0.0763;35.562;81.654
54.414.063;70.360;10.226;-0.1984;24.878;142.705
54.453.125;74.939;13.889;-0.1984;18.162;169.872
54.492.188;84.402;19.689;1,165972222;20.910;154.304
54.531.250;87.454;18.162;2,4375;24.878;143.926
54.570.313;84.707;12.973;2,861805556;25.488;173.535
54.609.375;79.212;12.363;4,133333333;25.488;217.491
54.648.438;67.918;5,19375;1,377777778;20.910;264.805
54.687.500;51.129;-10.226;-16.636;2,4375;255.037
54.726.563;34.951;-30.678;-43.498;-23.046;147.283
54.765.625;30.067;-33.425;-53.877;-41.056;50.824
54.804.688;38.309;-17.247;-44.109;-41.972;15.720
54.843.750;49.603;3,073611111;-27.320;-27.015;27.320
54.882.813;59.371;19.994;-11.142;-0.5037;54.792
54.921.875;71.276;20.604;-0.5037;1,377777778;-0.0763
54.960.938;82.875;2,861805556;-16.331;-13.584;-132.937
55.000.000;79.212;-15.110;-31.899;-31.899;-186.050
55.039.063;62.424;-22.741;-32.814;-31.593;-114.621
55.078.125;47.772;-20.910;-23.046;-23.352;-53.877
55.117.188;44.414;-16.331;-12.363;-20.604;-71.276
55.156.250;49.603;-0.8700;-0.6563;-19.689;-97.527
55.195.313;50.519;-0.2900;-0.5342;-15.415;-85.317
55.234.375;42.888;-0.2900;-0.4121;-0.6258;-61.508
55.273.438;35.562;-10.531;-0.7173;-0.1068;-53.877
55.312.500;37.088;-18.773;-13.278;-0.1984;-36.172
55.351.563;43.803;-21.215;-15.110;-0.2289;-0.0458
55.390.625;50.214;-19.994;-15.415;-0.5037;-16.026
55.429.688;51.435;-18.468;-12.973;-0.8700;-88.370
55.468.750;42.888;-18.468;-10.836;-0.6258;-132.631
55.507.813;31.899;-16.941;-0.8089;0,954166667;-85.623
55.546.875;23.962;-12.363;-0.3816;12.973;-0.7784
55.585.938;23.046;-0.8700;-0.1679;23.046;13.278
55.625.000;29.762;-0.5647;-0.4121;24.878;1,802083333
55.664.063;29.151;-0.5037;-15.415;16.331;16.331
55.703.125;23.657;-0.5952;-25.794;5,829166667;72.802
55.742.188;23.657;-0.3816;-27.015;4,345833333;100.885
55.781.250;23.962;-0.1068;-29.762;2,65;68.834
55.820.313;19.078;-0.5952;-39.530;-0.1679;26.404
55.859.375;15.110;-13.278;-47.161;-11.142;-31.899
55.898.438;16.941;-0.7173;-41.972;-16.331;-63.034
55.937.500;12.973;3,073611111;-35.256;-14.194;-15.415
55.976.563;1,802083333;2,861805556;-38.919;-12.363;55.403
56.015.625;-0.0763;-0.4121;-46.245;-13.584;74.634
56.054.688;0,10625;-11.142;-48.687;-13.278;87.759
56.093.750;-0.0153;-16.026;-48.382;-13.584;126.221
56.132.813;-0.2289;-19.078;-48.077;-17.552;74.634
56.171.875;-0.2900;-21.215;-47.161;-19.078;-52.656
56.210.938;-0.3816;-24.267;-48.077;-18.773;-135.379
56.250.000;-0.2595;-21.825;-47.772;-15.720;-119.505
56.289.063;2,65;-14.805;-42.888;-0.8089;-40.751
56.328.125;3,709722222;-14.194;-39.225;-0.2289;16.941
56.367.188;-0.1068;-16.026;-37.698;-0.0458;51.740
56.406.250;-0.7784;-14.194;-36.172;-0.1984;72.802
56.445.313;-0.9615;-12.363;-34.951;-0.5342;67.613
56.484.375;-0.4731;-10.531;-31.899;-0.8089;34.341
56.523.438;3,709722222;-13.889;-33.425;-16.026;-20.604
56.562.500;15.415;-18.468;-37.088;-26.404;-65.476
56.601.563;23.046;-12.363;-30.678;-29.762;-49.908
56.640.625;19.994;-0.8394;-23.962;-32.509;-0.4426
56.679.688;1,377777778;-16.636;-25.183;-38.309;30.067
56.718.750;-15.415;-22.131;-22.131;-35.867;123.779
56.757.813;-20.604;-20.299;-14.194;-24.573;237.332
56.796.875;-15.110;-20.910;-14.499;-14.499;269.078
56.835.938;-0.4121;-23.046;-20.604;-0.8394;248.626
56.875.000;6,889583333;-18.162;-21.215;-0.1374;227.564
56.914.063;24.878;-0.7173;-15.720;4,345833333;213.217
56.953.125;37.393;2,861805556;-0.7479;12.363;199.786
56.992.188;45.330;12.057;1,377777778;16.941;196.429
57.031.250;45.940;12.057;12.973;20.910;197.650
57.070.313;45.940;13.584;27.930;27.930;181.166
57.109.375;48.993;22.436;42.277;41.056;167.125
57.148.438;47.772;28.236;45.635;50.519;204.976
57.187.500;43.498;28.846;40.140;49.603;260.531
57.226.563;45.635;31.593;34.951;44.414;271.215
57.265.625;50.519;35.867;29.151;39.835;250.458
57.304.688;52.656;31.288;19.078;32.509;220.849
57.343.750;52.350;19.689;6,889583333;26.709;197.955
57.382.813;41.667;6,677083333;3,497916667;24.267;190.324
57.421.875;26.404;4,557638889;4,345833333;22.436;203.144
57.460.938;14.499;10.531;12.973;23.352;243.742
57.500.000;3,285416667;12.668;12.668;19.078;277.930
57.539.063;0,529861111;11.752;5,19375;5,405555556;234.890
57.578.125;4,769444444;13.584;6,041666667;1,377777778;157.051
57.617.188;15.720;11.447;2,861805556;-0.2900;122.863
57.656.250;20.299;6,041666667;-0.4426;-0.9005;90.812
57.695.313;26.404;21.215;4,557638889;-0.1679;42.277
57.734.375;32.814;36.783;27.930;11.752;22.131
57.773.438;29.457;38.004;36.477;19.689;29.457
57.812.500;23.962;38.309;38.614;26.709;38.309
57.851.563;24.878;49.908;47.772;42.277;85.928
57.890.625;27.930;56.929;52.350;56.013;143.010
57.929.688;33.425;53.266;48.993;61.508;141.789
57.968.750;43.193;51.740;56.013;70.971;94.170
58.007.813;45.330;53.877;67.002;82.875;27.320
58.046.875;32.814;47.466;66.697;87.149;-34.341
58.085.938;18.468;40.751;60.592;85.928;-49.603
58.125.000;14.499;46.856;55.098;83.181;2,861805556
58.164.063;16.941;52.656;41.667;71.276;85.623
58.203.125;16.331;48.993;25.794;59.371;150.031
58.242.188;10.226;45.024;19.994;56.624;153.694
58.281.250;1,165972222;39.225;18.162;52.961;116.758
58.320.313;-13.889;22.741;10.226;41.056;94.475
58.359.375;-26.099;4,769444444;1,802083333;26.404;82.265
58.398.438;-23.657;3,709722222;4,769444444;18.773;79.823
58.437.500;-14.194;6,677083333;10.531;6,889583333;71.581
58.476.563;-0.5647;6,677083333;0,741666667;-0.8394;57.845
58.515.625;-0.0763;13.278;-0.2900;-18.773;88.980
58.554.688;0,741666667;20.299;1,589583333;-15.720;173.535
58.593.750;0,10625;22.131;2,225694444;-12.363;206.502
58.632.813;-0.2595;19.383;-0.1068;-14.194;129.274
58.671.875;-0.8700;18.162;-0.4426;-16.331;50.824
58.710.938;-16.026;18.773;-0.4731;-13.584;18.162
58.750.000;-22.741;15.415;-0.8089;-10.226;-15.720
58.789.063;-30.983;11.752;-0.9310;-0.9615;-38.614
58.828.125;-34.951;13.278;-0.1679;-0.5342;-0.3205
58.867.188;-34.035;11.142;1,589583333;-0.2595;30.372
58.906.250;-38.919;1,165972222;-0.4121;-0.9921;6,041666667
58.945.313;-48.077;-0.4121;-11.447;-19.383;38.309
58.984.375;-52.045;-0.8089;-18.468;-23.657;94.170
59.023.438;-45.024;-11.752;-26.099;-22.741;86.233
59.062.500;-34.035;-0.3510;-19.994;-10.836;66.392
59.101.563;-28.846;12.057;-0.1068;5,19375;57.845
59.140.625;-29.457;20.604;13.278;20.299;63.950
59.179.688;-34.341;19.689;17.857;22.436;64.560
59.218.750;-40.751;11.447;13.584;11.752;33.120
59.257.813;-44.109;-0.3205;1,377777778;-0.5952;-10.226
59.296.875;-47.161;-18.468;-0.7784;-15.110;-38.614
59.335.938;-54.792;-22.131;-0.9921;-0.7173;-21.825
59.375.000;-63.339;-19.994;-0.9005;1,802083333;-16.636
59.414.063;-61.203;-13.584;1,377777778;12.668;1,589583333
59.453.125;-47.466;-0.2595;21.520;27.015;89.286
59.492.188;-40.751;-0.0763;25.488;27.625;114.621
59.531.250;-38.614;-0.1984;16.636;15.415;81.044
59.570.313;-31.288;1,589583333;12.363;6,677083333;110.043
59.609.375;-33.730;2,225694444;10.836;10.531;171.398
59.648.438;-50.214;-0.9005;-0.3510;0,318055556;170.177
59.687.500;-63.950;-25.488;-26.709;-19.383;106.074
59.726.563;-66.697;-32.204;-39.530;-31.899;67.308
59.765.625;-61.813;-29.762;-40.751;-30.983;94.475
59.804.688;-58.150;-20.604;-34.341;-21.825;142.705
59.843.750;-60.897;-14.805;-27.930;-12.363;143.010
59.882.813;-63.645;-17.247;-24.573;-0.7479;72.802
59.921.875;-55.708;-17.247;-17.247;-0.6258;-12.363
59.960.938;-36.783;-12.668;-0.9310;-0.9615;-69.444
60.000.000;-27.625;-12.668;-15.110;-19.383;-125.916
60.039.063;-37.088;-13.278;-26.099;-25.488;-151.557
60.078.125;-47.161;-0.5952;-23.352;-19.689;-97.222
60.117.188;-55.403;-0.4426;-19.689;-12.973;-35.562
60.156.250;-66.697;-15.720;-28.846;-13.584;-30.372
60.195.313;-71.276;-27.625;-40.140;-19.383;-71.276
60.234.375;-65.171;-33.730;-43.803;-25.794;-124.084
60.273.438;-56.929;-32.509;-34.341;-21.520;-90.201
60.312.500;-51.740;-26.404;-21.520;-11.447;-18.468
60.351.563;-50.519;-20.604;-13.584;-0.8394;-30.678
60.390.625;-56.013;-19.994;-10.836;-11.752;-73.718
60.429.688;-58.761;-19.994;-0.8700;-14.805;-56.624
60.468.750;-54.792;-13.278;-0.6868;-13.889;26.099
60.507.813;-51.129;-0.7173;-15.415;-16.026;46.551
60.546.875;-41.972;-0.3205;-21.520;-20.299;-38.004
60.585.938;-31.288;0,529861111;-20.299;-21.825;-74.634
60.625.000;-29.762;-0.2595;-25.488;-24.267;-48.687
60.664.063;-38.004;-10.226;-31.899;-22.436;-27.930
60.703.125;-51.435;-13.889;-28.236;-11.752;1,589583333
60.742.188;-66.087;-17.857;-26.099;-0.3510;28.236
60.781.250;-77.991;-22.741;-31.593;-0.4426;42.277
60.820.313;-82.265;-24.878;-38.309;-13.278;40.446
60.859.375;-73.718;-27.930;-47.772;-31.288;-17.247
60.898.438;-59.676;-27.930;-53.877;-43.193;-95.085
60.937.500;-49.908;-22.741;-48.382;-38.309;-134.463
60.976.563;-48.382;-19.689;-38.614;-27.930;-177.503
61.015.625;-53.571;-19.078;-28.236;-19.078;-225.733
61.054.688;-55.708;-12.973;-16.331;-0.8700;-225.427
61.093.750;-58.455;-0.6563;-15.415;-0.5342;-212.302
61.132.813;-67.308;-14.805;-30.678;-16.941;-237.637
61.171.875;-75.244;-26.709;-42.888;-28.846;-268.468
61.210.938;-76.465;-27.320;-39.225;-25.183;-231.838
61.250.000;-69.750;-19.689;-29.762;-13.889;-124.389
61.289.063;-60.592;-15.110;-26.709;-0.7173;-71.886
61.328.125;-54.182;-20.604;-32.204;-0.8394;-129.884
61.367.188;-49.603;-25.183;-32.814;-0.6258;-152.473
61.406.250;-49.603;-19.383;-19.689;6,677083333;-70.665
61.445.313;-54.792;-12.363;-0.7173;26.099;32.509
61.484.375;-58.150;-0.8700;-0.4731;28.846;89.591
61.523.438;-60.592;-0.7173;-0.8089;22.131;69.139
61.562.500;-71.276;-12.668;-13.278;17.857;-0.3205
61.601.563;-81.654;-18.773;-18.773;15.720;-74.328
61.640.625;-81.349;-20.299;-23.352;13.278;-123.474
61.679.688;-74.634;-19.078;-20.299;15.415;-155.525
61.718.750;-66.087;-13.278;-12.363;19.383;-150.031
61.757.813;-70.665;-20.299;-23.352;10.531;-154.609
61.796.875;-85.317;-39.225;-44.109;-0.6868;-230.617
61.835.938;-88.675;-40.751;-43.498;-0.8700;-265.110
61.875.000;-88.065;-30.372;-35.867;-0.0763;-208.639
61.914.063;-85.012;-18.162;-30.678;0,741666667;-123.168
61.953.125;-74.939;-0.3816;-25.183;0,318055556;-36.783
61.992.188;-67.308;2,861805556;-28.236;-0.2595;2,65
62.031.250;-69.750;3,285416667;-36.783;-0.7784;5,405555556
62.070.313;-77.686;-0.0458;-43.803;-10.531;30.678
62.109.375;-81.654;-11.752;-48.077;-12.668;54.792
62.148.438;-86.844;-27.625;-53.266;-17.857;32.204
62.187.500;-93.559;-39.835;-55.098;-19.994;34.646
62.226.563;-93.559;-44.414;-49.298;-16.331;74.939
62.265.625;-89.591;-49.298;-42.888;-16.331;47.161
62.304.688;-82.875;-50.824;-39.530;-17.552;-27.625
62.343.750;-77.076;-41.972;-32.204;-13.584;-79.212
62.382.813;-74.939;-28.236;-22.741;-0.7479;-68.223
62.421.875;-79.212;-21.520;-21.825;-0.2595;-29.457
62.460.938;-93.864;-29.151;-34.646;-0.1374;-54.792
62.500.000;-105.464;-42.277;-49.298;-0.4121;-99.359
62.539.063;-103.938;-44.109;-49.298;-0.5952;-95.085
62.578.125;-95.391;-34.341;-38.919;-0.5037;-88.980
62.617.188;-92.643;-25.183;-31.899;-0.6868;-120.421
62.656.250;-99.664;-24.878;-32.204;-15.110;-163.156
62.695.313;-97.833;-28.846;-35.256;-22.741;-195.818
62.734.375;-81.960;-27.015;-29.762;-20.910;-191.239
62.773.438;-72.497;-23.657;-14.805;-10.836;-141.789
62.812.500;-79.212;-27.015;-0.5647;-0.1374;-74.328
62.851.563;-96.001;-37.698;-12.668;-0.2289;-43.803
62.890.625;-108.516;-51.129;-23.657;-0.9615;-74.634
62.929.688;-106.685;-51.435;-19.689;-0.6258;-83.181
62.968.750;-96.001;-39.835;-0.9005;1,589583333;-59.371
63.007.813;-83.791;-33.730;-0.7479;0,529861111;-51.435
63.046.875;-75.855;-38.919;-16.636;-11.752;-79.212
63.085.938;-70.971;-45.330;-28.236;-27.320;-130.495
63.125.000;-72.802;-46.551;-35.256;-34.341;-132.326
63.164.063;-85.928;-50.214;-41.972;-34.035;-90.201
63.203.125;-95.085;-56.929;-48.077;-32.204;-60.287
63.242.188;-92.033;-56.013;-45.330;-26.099;-61.203
63.281.250;-88.065;-46.245;-35.256;-17.552;-68.529
63.320.313;-87.149;-38.309;-28.236;-12.057;-84.402
63.359.375;-85.623;-37.698;-27.320;-12.057;-174.145
63.398.438;-83.181;-38.919;-28.541;-14.194;-315.171
63.437.500;-80.739;-39.225;-27.930;-13.584;-397.589
63.476.563;-77.076;-38.614;-28.541;-12.057;-377.137
63.515.625;-77.076;-34.951;-26.709;-0.7479;-289.530
63.554.688;-83.791;-30.983;-21.215;-0.1679;-193.987
63.593.750;-88.065;-30.372;-19.078;0,318055556;-159.493
63.632.813;-84.402;-26.099;-15.415;4,98125;-150.641
63.671.875;-82.570;-18.468;-0.2900;21.825;-113.706
63.710.938;-83.486;-15.110;10.226;35.867;-96.612
63.750.000;-85.317;-23.046;13.584;42.582;-119.200
63.789.063;-88.675;-41.056;3,073611111;42.582;-178.724
63.828.125;-88.980;-54.792;-0.3205;41.667;-236.416
63.867.188;-79.518;-52.961;0,318055556;44.719;-231.838
63.906.250;-62.118;-41.667;10.531;47.161;-183.608
63.945.313;-52.350;-33.120;16.636;43.193;-134.463
63.984.375;-52.350;-26.404;20.604;38.004;-83.181
64.023.438;-53.266;-21.215;22.436;31.899;-28.541
64.062.500;-58.761;-26.099;14.499;21.520;-15.110
64.101.563;-68.529;-38.004;-0.0763;5,19375;-18.468
64.140.625;-76.160;-46.551;-16.941;-0.4731;12.973
64.179.688;-82.875;-47.466;-30.983;-15.415;30.678
64.218.750;-85.012;-43.803;-39.530;-23.657;4,133333333
64.257.813;-83.486;-46.245;-44.414;-27.320;-60.897
64.296.875;-81.654;-52.961;-48.077;-33.120;-139.042
64.335.938;-71.886;-51.129;-47.772;-39.530;-179.640
64.375.000;-61.203;-40.140;-44.414;-41.972;-195.513
64.414.063;-62.424;-33.425;-46.245;-45.940;-211.386
64.453.125;-74.634;-36.783;-53.266;-51.435;-241.300
64.492.188;-88.980;-45.024;-58.761;-52.961;-261.752
64.531.250;-96.917;-51.740;-55.098;-45.635;-220.238
64.570.313;-97.222;-51.740;-39.225;-30.067;-115.537
64.609.375;-92.643;-48.687;-26.404;-21.825;-33.730
64.648.438;-87.454;-46.245;-24.573;-28.236;-57.845
64.687.500;-83.486;-39.530;-24.267;-35.256;-176.587
64.726.563;-83.181;-30.983;-21.520;-36.477;-289.225
64.765.625;-86.538;-26.404;-21.215;-36.172;-322.802
64.804.688;-83.791;-25.183;-25.794;-38.919;-298.687
64.843.750;-77.686;-30.372;-31.288;-45.635;-281.593
64.882.813;-80.433;-43.498;-38.614;-50.824;-297.466
64.921.875;-86.233;-53.266;-44.109;-46.245;-285.867
64.960.938;-85.623;-51.435;-40.140;-31.593;-222.985
65.000.000;-87.759;-45.024;-31.593;-18.468;-169.567
65.039.063;-96.917;-43.193;-30.067;-16.636;-161.020
65.078.125;-100.885;-38.614;-25.488;-17.247;-161.020
65.117.188;-91.422;-23.046;-0.8089;-0.8394;-159.188
65.156.250;-76.465;-0.9921;4,345833333;-0.0458;-174.451
65.195.313;-63.645;-0.8089;11.142;1,589583333;-158.883
65.234.375;-57.845;-10.531;5,19375;2,013888889;-106.380
65.273.438;-61.203;-16.026;-0.6563;-0.4731;-84.707
65.312.500;-76.770;-32.509;-30.067;-20.910;-99.359
65.351.563;-95.696;-51.129;-53.266;-38.919;-128.358
65.390.625;-104.243;-60.897;-69.139;-55.098;-181.471
65.429.688;-107.906;-62.424;-75.855;-64.255;-220.849
65.468.750;-110.043;-54.182;-68.834;-59.066;-210.470
65.507.813;-110.348;-43.803;-57.234;-46.856;-188.492
65.546.875;-111.264;-41.667;-50.519;-38.919;-183.303
65.585.938;-109.127;-43.193;-41.056;-30.372;-185.440
65.625.000;-99.969;-39.835;-24.878;-15.415;-171.093
65.664.063;-88.980;-30.678;-0.9615;-0.2900;-118.590
65.703.125;-85.317;-23.962;-0.6868;-0.0153;-52.656
65.742.188;-95.085;-30.372;-22.131;-0.9921;-31.899
65.781.250;-109.432;-41.361;-41.972;-21.520;-58.150
65.820.313;-112.790;-42.582;-51.129;-25.183;-125.000
65.859.375;-112.485;-41.361;-55.403;-28.236;-228.480
65.898.438;-111.264;-38.614;-52.656;-27.015;-285.867
65.937.500;-102.717;-26.404;-38.614;-16.331;-278.236
65.976.563;-94.475;-14.194;-30.067;-12.057;-275.488
66.015.625;-90.507;-12.057;-32.509;-18.468;-283.120
66.054.688;-88.675;-19.383;-42.277;-32.204;-281.288
66.093.750;-87.149;-28.541;-50.214;-45.635;-272.436
66.132.813;-88.370;-34.646;-49.908;-48.382;-264.805
66.171.875;-97.222;-41.667;-51.740;-45.024;-285.256
66.210.938;-108.516;-47.161;-54.487;-40.140;-299.908
66.250.000;-114.621;-44.414;-50.519;-32.509;-258.394
66.289.063;-113.095;-37.393;-42.888;-25.488;-207.112
66.328.125;-101.801;-32.814;-32.204;-18.162;-182.998
66.367.188;-80.739;-28.846;-19.383;-11.752;-161.935
66.406.250;-66.697;-25.794;-11.447;-0.8089;-143.010
66.445.313;-70.665;-21.825;-0.6563;-0.1984;-121.337
66.484.375;-75.244;-10.531;0,318055556;6,253472222;-74.634
66.523.438;-67.308;2,4375;6,465277778;20.299;-24.573
66.562.500;-59.371;10.226;6,465277778;20.910;-26.709
66.601.563;-61.508;10.836;0,954166667;10.836;-82.570
66.640.625;-63.645;11.752;-0.1984;2,013888889;-88.370
66.679.688;-67.002;3,073611111;-0.9921;-0.4731;-36.172
66.718.750;-69.444;-0.5342;-19.994;-13.278;1,377777778
66.757.813;-65.781;-0.7173;-20.604;-13.278;31.288
66.796.875;-70.665;-13.584;-25.488;-14.194;6,041666667
66.835.938;-74.328;-18.468;-27.930;-14.194;-45.635
66.875.000;-61.508;-0.9921;-13.278;-0.2900;-33.425
66.914.063;-56.013;-0.8089;-0.6563;2,013888889;-13.278
66.953.125;-65.476;-14.194;-13.278;-0.1068;-46.856
66.992.188;-68.223;-13.278;-12.973;0,10625;-75.244
67.031.250;-66.697;-14.194;-12.057;1,165972222;-104.243
67.070.313;-69.750;-21.520;-16.026;-0.5037;-179.029
67.109.375;-70.055;-20.299;-11.447;-0.6868;-231.532
67.148.438;-70.055;-0.8089;1,377777778;0,318055556;-204.670
67.187.500;-74.023;0,10625;10.226;1,589583333;-165.904
67.226.563;-76.465;1,377777778;6,889583333;-0.1984;-120.726
67.265.625;-75.549;0,10625;2,861805556;-0.7479;-53.266
67.304.688;-80.128;-10.836;-10.226;-20.910;-41.361
67.343.750;-89.591;-23.962;-27.015;-39.835;-100.275
67.382.813;-97.527;-28.846;-37.698;-50.824;-177.198
67.421.875;-96.001;-23.962;-31.899;-42.888;-188.187
67.460.938;-82.875;-13.584;-13.889;-23.352;-114.621
67.500.000;-69.750;-0.6258;-0.2900;-10.531;-57.234
67.539.063;-67.918;-0.5037;-0.3816;-0.7784;-54.487
67.578.125;-72.802;-0.5952;-0.5037;-0.4426;-59.982
67.617.188;-74.023;-0.6563;0,741666667;1,802083333;-55.403
67.656.250;-75.855;-11.752;3,073611111;0,741666667;-71.276
67.695.313;-83.181;-18.773;3,073611111;-0.8394;-103.632
67.734.375;-88.065;-24.878;3,285416667;-14.499;-108.822
67.773.438;-84.402;-30.983;1,165972222;-16.941;-59.066
67.812.500;-75.855;-26.709;2,4375;-12.668;23.352
67.851.563;-64.866;-0.9615;13.889;-0.0458;87.759
67.890.625;-48.687;5,405555556;26.099;12.363;116.148
67.929.688;-27.930;17.552;33.730;20.299;115.537
67.968.750;-16.636;16.636;33.730;21.825;96.612
68.007.813;-21.520;3,497916667;26.099;14.194;58.455
68.046.875;-30.067;-0.6563;14.805;1,165972222;-0.1984
68.085.938;-31.593;-12.363;2,225694444;-0.8700;-44.414
68.125.000;-24.573;-12.973;-0.3816;-16.026;-42.888
68.164.063;-18.468;-0.7173;-0.4731;-19.689;-30.678
68.203.125;-19.078;1,802083333;-0.1984;-17.552;-31.288
68.242.188;-21.520;4,345833333;0,10625;-12.363;-28.846
68.281.250;-23.657;2,225694444;2,225694444;-0.8700;-20.299
68.320.313;-34.035;-0.3510;1,165972222;-10.531;-39.835
68.359.375;-50.519;-14.194;-0.7784;-17.552;-76.465
68.398.438;-58.150;-18.162;-10.226;-19.078;-67.613
68.437.500;-50.824;-10.531;-0.0153;-10.226;-11.752
68.476.563;-39.835;-0.1374;10.226;-0.0458;48.687
68.515.625;-33.730;1,802083333;17.552;3,285416667;88.370
68.554.688;-35.562;0,954166667;20.299;4,769444444;82.570
68.593.750;-38.919;-0.3205;16.026;4,345833333;38.004
68.632.813;-37.698;-11.142;4,769444444;1,802083333;-11.142
68.671.875;-40.140;-23.352;-0.7173;-0.7479;-64.560
68.710.938;-52.961;-34.951;-21.520;-19.383;-95.391
68.750.000;-65.171;-39.530;-27.015;-23.352;-66.697
68.789.063;-73.413;-41.972;-28.846;-24.878;-20.299
68.828.125;-75.855;-44.109;-31.899;-26.709;15.415
68.867.188;-73.718;-44.719;-37.088;-28.846;21.825
68.906.250;-73.107;-46.245;-40.446;-32.509;-0.8700
68.945.313;-65.476;-36.172;-26.709;-26.709;-0.6258
68.984.375;-50.519;-15.720;0,10625;-0.7173;17.857
69.023.438;-40.140;-0.4731;17.552;5,405555556;0,741666667
69.062.500;-36.172;-0.6258;17.552;6,465277778;-48.382
69.101.563;-37.393;-11.447;4,345833333;2,013888889;-128.053
69.140.625;-39.530;-16.026;-0.4121;-0.4426;-187.271
69.179.688;-43.193;-17.552;-0.5647;-0.6563;-158.578
69.218.750;-48.993;-17.552;-0.1679;-0.3816;-85.012
69.257.813;-51.435;-13.889;1,589583333;-0.1374;-31.288
69.296.875;-49.603;-0.5342;5,405555556;0,10625;-0.5037
69.335.938;-42.277;2,65;13.889;0,954166667;20.604
69.375.000;-35.256;5,405555556;6,677083333;-0.5037;16.331
69.414.063;-35.256;3,921527778;-0.4426;-20.299;-74.939
69.453.125;-35.562;3,921527778;-0.9615;-26.404;-160.409
69.492.188;-29.762;4,769444444;-0.3205;-19.689;-134.463
69.531.250;-17.857;4,133333333;0,954166667;-16.026;-44.719
69.570.313;-0.8089;5,617361111;4,98125;-12.973;46.551
69.609.375;-0.6563;11.752;13.584;-0.5342;93.559
69.648.438;-17.857;4,98125;4,769444444;-0.2289;45.024
69.687.500;-30.678;-0.3816;-0.6868;-0.2900;-22.741
69.726.563;-28.541;-0.8089;-0.8089;1,802083333;-23.352
69.765.625;-23.657;-0.4731;-0.1374;11.752;25.183
69.804.688;-20.910;-0.4121;-0.2289;13.889;110.348
69.843.750;-14.805;-0.3205;-0.1068;16.636;170.177
69.882.813;-10.836;1,802083333;4,98125;26.404;123.168
69.921.875;-15.110;3,709722222;10.531;33.425;2,225694444
69.960.938;-24.878;-0.0153;3,285416667;32.814;-121.642
70.000.000;-27.015;-0.7173;0,954166667;32.204;-212.607
70.039.063;-23.046;-0.7173;4,133333333;35.256;-205.891
70.078.125;-25.794;-0.2900;6,041666667;35.867;-77.381
70.117.188;-27.625;1,802083333;5,829166667;32.814;67.308
70.156.250;-22.436;5,617361111;4,133333333;28.236;126.526
70.195.313;-19.689;6,677083333;-0.0763;18.162;120.421
70.234.375;-17.857;10.226;-0.2900;2,013888889;102.106
70.273.438;-15.720;6,889583333;-0.2595;-13.889;69.750
70.312.500;-12.973;3,921527778;-0.6563;-29.151;12.973
70.351.563;-12.363;0,741666667;-0.8394;-34.951;-38.919
70.390.625;-19.994;-0.3816;-11.447;-36.477;-86.844
70.429.688;-25.488;-0.4731;-12.973;-36.783;-107.906
70.468.750;-23.046;0,318055556;-0.2900;-24.878;-71.886
70.507.813;-14.805;2,861805556;4,345833333;-0.8089;-56.013
70.546.875;-0.5952;2,65;6,677083333;0,318055556;-78.907
70.585.938;-12.973;-0.1984;4,557638889;-0.5647;-74.939
70.625.000;-26.099;-11.447;-0.3510;-23.046;-51.435
70.664.063;-29.762;-13.278;-11.752;-32.814;-45.024
70.703.125;-37.088;-12.973;-12.668;-31.288;-35.256
70.742.188;-42.582;-14.194;-0.9921;-27.015;-23.657
70.781.250;-36.172;-11.142;-0.3510;-16.941;-26.404
70.820.313;-30.678;-0.6868;0,529861111;-0.7479;-16.026
70.859.375;-35.256;-0.9615;-0.5952;-14.194;13.278
70.898.438;-43.498;-14.805;-18.773;-30.372;46.245
70.937.500;-43.193;-14.805;-27.320;-39.835;73.107
70.976.563;-35.562;-12.668;-31.593;-42.582;64.560
71.015.625;-28.846;-16.941;-33.730;-39.835;21.215
71.054.688;-26.404;-21.825;-29.151;-27.930;-0.4731
71.093.750;-22.436;-18.468;-18.773;-12.668;-0.1984
71.132.813;-10.836;-0.9310;-0.7784;-0.1984;47.466
71.171.875;1,589583333;0,529861111;3,921527778;4,345833333;163.156
71.210.938;5,19375;3,285416667;11.752;4,769444444;219.628
71.250.000;4,769444444;-0.5952;-0.0153;-0.8700;115.842
71.289.063;12.668;-14.499;-0.5952;-18.468;-0.2289
71.328.125;23.352;-0.2595;12.973;-0.4731;-0.2595
71.367.188;38.614;23.046;45.330;19.689;82.265
71.406.250;54.487;45.940;73.718;43.803;217.186
71.445.313;59.066;53.571;85.317;56.013;346.612
71.484.375;56.929;48.382;82.875;53.571;383.852
71.523.438;54.792;31.593;67.918;35.867;270.604
71.562.500;53.266;6,889583333;45.330;6,889583333;111.569
71.601.563;59.676;3,921527778;38.614;1,802083333;65.781
71.640.625;73.107;25.183;57.845;22.741;121.032
71.679.688;74.023;47.772;79.823;46.245;244.353
71.718.750;60.897;54.487;84.096;56.319;399.420
71.757.813;50.824;52.045;79.823;62.118;503.816
71.796.875;43.498;44.109;71.276;64.560;521.825
71.835.938;38.309;34.951;61.203;59.371;482.143
71.875.000;41.972;31.288;58.455;54.487;442.460
71.914.063;51.740;29.151;58.455;51.129;404.609
71.953.125;55.098;29.457;57.234;47.466;356.074
71.992.188;62.118;31.899;58.150;44.719;322.497
72.031.250;96.306;34.951;65.476;48.077;335.928
72.070.313;118.590;34.646;70.971;55.098;369.811
72.109.375;99.359;26.709;62.729;52.656;352.106
72.148.438;73.718;22.741;52.961;48.382;306.929
72.187.500;53.877;32.509;53.266;51.740;279.457
72.226.563;29.762;44.109;53.571;52.350;250.153
72.265.625;11.752;49.298;53.571;51.740;249.847
72.304.688;16.941;56.929;63.950;61.203;292.888
72.343.750;38.614;64.866;75.855;76.465;339.591
72.382.813;59.066;65.781;81.960;90.201;402.473
72.421.875;65.171;61.203;86.233;99.969;452.839
72.460.938;57.540;55.403;85.317;101.496;440.018
72.500.000;48.077;53.571;83.486;100.580;422.924
72.539.063;37.088;53.571;80.739;100.580;408.578
72.578.125;23.657;49.603;72.497;97.833;366.758
72.617.188;11.447;44.719;66.697;95.085;360.653
72.656.250;2,013888889;45.024;68.834;93.864;392.705
72.695.313;0,10625;48.382;73.413;95.696;420.482
72.734.375;2,4375;47.161;71.886;96.917;416.209
72.773.438;14.805;40.446;63.645;90.812;364.927
72.812.500;24.573;36.172;57.540;83.486;320.971
72.851.563;22.436;33.425;52.045;81.654;309.066
72.890.625;16.636;25.794;41.667;79.518;280.067
72.929.688;12.973;13.278;27.625;70.360;231.532
72.968.750;3,709722222;3,921527778;17.857;55.403;203.449
73.007.813;-0.1679;5,405555556;17.857;41.361;186.355
73.046.875;-0.3816;16.026;25.794;38.004;183.303
73.085.938;0,741666667;22.131;31.288;39.530;201.007
73.125.000;12.668;20.910;28.846;37.393;212.302
73.164.063;20.299;19.078;26.404;37.088;214.438
73.203.125;16.331;17.247;23.962;38.309;208.333
73.242.188;6,253472222;13.889;18.773;38.309;182.998
73.281.250;10.836;16.941;17.247;36.783;138.126
73.320.313;16.636;24.267;22.131;36.477;120.116
73.359.375;15.415;27.930;32.204;42.277;157.662
73.398.438;12.057;25.794;39.225;46.551;182.387
73.437.500;19.078;26.099;40.446;44.414;149.115
73.476.563;29.762;34.951;44.414;46.245;135.073
73.515.625;34.646;43.803;51.740;52.350;166.819
73.554.688;34.341;44.414;51.435;50.824;172.314
73.593.750;26.404;37.393;46.856;45.330;154.304
73.632.813;23.046;33.730;48.993;46.551;152.167
73.671.875;28.846;36.172;57.540;47.466;172.009
73.710.938;34.341;38.309;64.866;43.193;220.238
73.750.000;35.867;36.783;62.118;33.730;242.827
73.789.063;31.288;27.930;51.129;19.994;195.818
73.828.125;23.352;15.720;42.888;10.531;121.337
73.867.188;19.078;5,405555556;40.446;6,677083333;61.813
73.906.250;24.267;4,769444444;46.856;17.247;42.582
73.945.313;32.814;14.194;61.508;31.288;71.276
73.984.375;33.730;22.131;70.971;39.835;106.685
74.023.438;30.372;24.267;68.529;39.530;115.842
74.062.500;30.067;21.825;60.897;36.783;112.790
74.101.563;34.341;17.247;52.961;34.341;103.632
74.140.625;37.698;10.531;41.667;29.151;52.961
74.179.688;40.446;4,98125;33.120;23.962;-21.215
74.218.750;47.466;3,921527778;30.372;20.604;-56.624
74.257.813;55.098;-0.0153;26.404;16.331;-56.929
74.296.875;60.592;2,013888889;34.646;23.657;-20.604
74.335.938;64.866;20.604;58.455;44.109;40.446
74.375.000;69.750;35.256;75.244;58.761;88.370
74.414.063;70.971;37.698;76.465;62.729;114.621
74.453.125;67.613;32.509;66.697;60.287;106.685
74.492.188;61.508;27.320;55.403;55.403;100.275
74.531.250;52.656;24.878;47.772;49.908;114.011
74.570.313;43.803;21.215;42.277;43.803;120.726
74.609.375;38.004;21.215;42.582;40.751;150.946
74.648.438;36.477;25.488;40.446;36.783;191.850
74.687.500;38.309;24.267;26.709;23.962;203.449
74.726.563;41.056;19.383;16.026;5,405555556;219.628
74.765.625;43.193;16.331;16.941;-0.1374;245.269
74.804.688;43.193;14.805;19.383;-0.4731;259.921
74.843.750;38.919;13.889;16.941;-0.9310;260.836
74.882.813;35.256;14.805;12.668;-16.636;212.607
74.921.875;34.035;12.057;4,557638889;-25.183;130.800
74.960.938;29.457;2,861805556;-0.1374;-35.562;95.391
75.000.000;30.678;-0.2900;-0.5647;-45.024;116.453
75.039.063;43.193;-0.2289;-0.0763;-43.803;160.409
75.078.125;51.435;2,4375;4,133333333;-33.730;197.955
75.117.188;51.129;5,405555556;4,98125;-27.015;188.492
75.156.250;53.266;12.363;6,677083333;-19.689;163.767
75.195.313;52.961;17.857;14.194;-10.836;160.104
75.234.375;45.635;16.026;12.973;-10.531;141.789
75.273.438;46.245;10.226;12.668;-14.805;143.010
75.312.500;55.403;4,557638889;16.026;-14.194;182.082
75.351.563;59.676;3,709722222;17.552;-10.836;184.219
75.390.625;65.171;6,253472222;23.657;-0.5342;162.241
75.429.688;71.276;16.331;36.172;1,377777778;170.482
75.468.750;72.192;18.162;39.835;1,377777778;157.357
75.507.813;68.529;12.057;33.425;-0.3816;105.159
75.546.875;61.813;5,19375;26.404;-0.7479;64.866
75.585.938;53.266;4,133333333;15.720;-12.973;25.183
75.625.000;42.277;3,497916667;2,013888889;-18.468;-10.226
75.664.063;33.730;4,98125;-0.0153;-19.689;1,165972222
75.703.125;32.814;6,253472222;1,165972222;-19.994;49.908
75.742.188;35.562;5,19375;1,165972222;-22.436;93.864
75.781.250;37.088;3,709722222;1,377777778;-24.267;110.348
75.820.313;34.341;4,345833333;2,861805556;-24.573;101.190
75.859.375;28.236;3,285416667;-0.1068;-27.625;66.697
75.898.438;17.247;-0.5647;-19.994;-36.172;11.142
75.937.500;5,405555556;-14.499;-33.425;-42.888;-21.215
75.976.563;12.668;-12.057;-31.593;-41.361;13.584
76.015.625;27.015;-0.3205;-21.215;-33.120;107.295
76.054.688;38.309;6,041666667;-0.5342;-22.131;194.292
76.093.750;41.361;17.857;6,889583333;-12.668;197.344
76.132.813;41.361;17.247;14.499;-13.889;93.559
76.171.875;35.562;1,589583333;0,318055556;-30.067;-39.835
76.210.938;25.794;-14.194;-15.720;-46.245;-126.526
76.250.000;21.520;-16.636;-17.247;-46.551;-161.935
76.289.063;18.468;-14.499;-14.499;-38.919;-158.272
76.328.125;19.078;-16.941;-14.805;-30.678;-124.084
76.367.188;28.541;-12.363;-12.668;-19.383;-67.613
76.406.250;37.393;-0.1374;-0.8394;-11.142;-16.941
76.445.313;40.751;3,285416667;-0.6258;-11.447;18.162
76.484.375;38.004;1,377777778;-10.836;-18.468;25.488
76.523.438;33.120;-0.2595;-18.162;-24.573;2,861805556
76.562.500;30.372;-0.1679;-20.299;-24.878;-0.4731
76.601.563;25.794;-0.7784;-30.067;-29.151;-22.436
76.640.625;19.383;-22.741;-45.024;-40.140;-56.013
76.679.688;18.162;-25.183;-45.635;-47.161;-61.813
76.718.750;23.046;-14.499;-34.341;-46.856;-25.794
76.757.813;27.930;-0.6258;-25.183;-44.414;30.678
76.796.875;29.457;-0.8394;-22.741;-46.245;60.592
76.835.938;30.067;-18.773;-25.794;-52.961;32.814
76.875.000;28.846;-34.951;-37.393;-64.866;-51.435
76.914.063;28.541;-44.414;-44.719;-74.328;-122.253
76.953.125;28.236;-37.088;-37.393;-70.971;-142.094
76.992.188;22.436;-25.183;-32.814;-66.697;-175.061
77.031.250;16.941;-15.110;-33.120;-63.645;-178.419
77.070.313;13.584;-0.9921;-31.593;-59.371;-128.663
77.109.375;6,677083333;-13.584;-34.035;-62.118;-85.317
77.148.438;4,345833333;-22.131;-41.056;-67.002;-41.667
77.187.500;2,225694444;-33.120;-50.519;-72.802;-49.298
77.226.563;5,829166667;-34.646;-48.687;-75.244;-94.780
77.265.625;20.604;-19.078;-31.899;-66.392;-66.697
77.304.688;21.520;-0.7479;-20.604;-58.150;-0.3205
77.343.750;13.889;-0.8700;-19.994;-56.319;4,769444444
77.382.813;6,889583333;-13.584;-20.299;-53.266;-24.878
77.421.875;5,617361111;-17.247;-20.910;-47.772;-54.487
77.460.938;10.226;-18.773;-20.299;-41.056;-81.960
77.500.000;17.857;-17.247;-17.857;-33.730;-93.254
77.539.063;24.267;-12.363;-16.026;-27.015;-59.982
77.578.125;23.352;-0.9921;-17.857;-27.015;-24.878
77.617.188;15.110;-20.910;-33.425;-45.024;-51.740
77.656.250;4,557638889;-38.309;-54.487;-71.581;-142.705
77.695.313;3,497916667;-50.519;-64.255;-86.538;-231.227
77.734.375;11.142;-56.929;-65.781;-87.149;-258.089
77.773.438;22.436;-51.129;-59.982;-80.128;-247.405
77.812.500;29.762;-37.393;-45.635;-70.665;-217.796
77.851.563;25.794;-26.709;-29.151;-60.592;-137.210
77.890.625;20.299;-14.194;-19.994;-55.098;-61.508
77.929.688;20.910;-0.7784;-22.741;-59.676;-65.171
77.968.750;22.131;-15.415;-33.120;-70.665;-109.737
78.007.813;20.604;-21.825;-32.814;-72.802;-122.863
78.046.875;20.299;-11.752;-15.415;-57.234;-115.537
78.085.938;17.247;-0.1679;-10.836;-45.330;-171.703
78.125.000;2,861805556;-0.9005;-29.151;-48.077;-252.289
78.164.063;-0.3816;-16.026;-40.446;-48.993;-250.153
78.203.125;0,10625;-0.9005;-34.341;-39.225;-178.419
78.242.188;1,802083333;-0.4426;-26.709;-28.846;-108.822
78.281.250;-0.5952;-14.194;-30.067;-30.678;-96.306
78.320.313;-12.668;-27.625;-39.835;-43.498;-139.957
78.359.375;-0.8394;-34.035;-43.803;-53.571;-208.639
78.398.438;-0.6868;-29.762;-34.646;-44.414;-249.237
78.437.500;-14.194;-24.573;-23.352;-25.183;-228.175
78.476.563;-18.773;-29.762;-22.131;-14.499;-191.850
78.515.625;-10.836;-32.509;-16.636;-0.7173;-144.841
78.554.688;-0.0763;-29.457;-0.3816;0,10625;-76.160
78.593.750;-0.1374;-27.015;2,65;2,65;-22.741
78.632.813;-0.2595;-20.604;12.057;6,677083333;3,921527778
78.671.875;-0.6258;-16.331;15.720;11.142;-12.057
78.710.938;-21.825;-26.099;1,802083333;-0.3816;-92.643
78.750.000;-30.067;-34.035;-10.226;-19.078;-194.902
78.789.063;-26.099;-38.309;-20.299;-31.288;-284.035
78.828.125;-14.194;-43.803;-31.593;-43.193;-318.223
78.867.188;3,285416667;-34.951;-28.541;-43.193;-280.067
78.906.250;16.941;-13.889;-13.278;-36.477;-239.164
78.945.313;12.057;-0.1068;2,013888889;-28.541;-214.133
78.984.375;-0.8700;-11.447;3,073611111;-26.709;-213.828
79.023.438;-30.372;-33.730;-13.889;-40.446;-265.415
79.062.500;-38.309;-48.382;-34.035;-61.203;-303.877
79.101.563;-25.183;-41.667;-28.846;-63.950;-274.878
79.140.625;-0.6868;-19.383;-0.5037;-45.635;-226.038
79.179.688;-0.0153;-0.6868;4,557638889;-32.814;-215.659
79.218.750;-0.3205;-10.531;2,225694444;-34.951;-231.227
79.257.813;-16.331;-17.857;-0.3205;-41.972;-267.857
79.296.875;-26.404;-12.057;-0.0763;-41.056;-284.646
79.335.938;-27.320;2,013888889;2,225694444;-38.004;-264.194
79.375.000;-27.015;12.057;-0.0763;-38.004;-267.552
79.414.063;-23.962;18.162;0,10625;-30.678;-279.151
79.453.125;-14.194;19.689;1,377777778;-26.099;-273.962
79.492.188;-0.6563;10.836;0,741666667;-28.236;-270.299
79.531.250;-0.5647;0,10625;0,529861111;-27.320;-282.509
79.570.313;-0.4426;-0.2289;0,741666667;-27.015;-283.730
79.609.375;-0.1374;1,589583333;3,921527778;-22.741;-236.111
79.648.438;3,073611111;11.447;6,253472222;-16.636;-160.409
79.687.500;6,889583333;19.994;5,617361111;-0.9921;-64.560
79.726.563;4,345833333;20.299;4,133333333;-0.2900;33.730
79.765.625;-0.3510;4,557638889;-0.4731;-0.9005;63.034
79.804.688;-0.6563;-0.9310;-15.415;-20.910;58.761
79.843.750;3,709722222;-0.4426;-0.4731;-14.805;101.190
79.882.813;22.436;14.194;15.415;0,318055556;133.547
79.921.875;29.151;19.078;11.752;0,529861111;65.781
79.960.938;23.657;11.142;-0.9921;-13.584;-55.098
80.000.000;19.383;11.142;-12.973;-17.247;-68.223
80.039.063;28.236;20.299;0,529861111;-10.531;16.636
80.078.125;40.751;21.215;3,073611111;-15.415;56.319
80.117.188;45.330;15.415;5,617361111;-17.857;78.907
80.156.250;49.298;20.299;28.846;-0.0458;173.230
80.195.313;54.792;31.899;50.824;18.468;254.426
80.234.375;51.129;30.067;51.435;22.741;237.332
80.273.438;45.024;21.520;43.498;23.962;199.786
80.312.500;47.161;21.520;45.330;30.372;198.871
80.351.563;55.403;26.404;47.772;27.930;226.343
80.390.625;58.455;25.794;40.140;16.636;280.678
80.429.688;57.234;21.215;31.593;6,253472222;329.518
80.468.750;59.982;22.131;32.814;11.142;355.769
80.507.813;66.087;34.951;51.740;28.236;410.409
80.546.875;73.413;54.487;81.044;53.877;488.553
80.585.938;83.791;69.750;100.275;68.529;515.720
80.625.000;93.254;75.549;104.853;70.360;478.480
80.664.063;96.612;74.328;104.243;69.444;436.355
80.703.125;97.222;66.697;96.612;62.424;416.209
80.742.188;92.643;48.993;73.718;47.161;372.863
80.781.250;87.759;29.762;47.772;30.067;288.614
80.820.313;83.486;20.910;37.698;20.910;188.797
80.859.375;71.886;18.468;38.919;21.215;92.033
80.898.438;64.255;21.520;47.466;27.015;46.551
80.937.500;67.002;36.172;66.697;41.361;88.065
80.976.563;63.645;50.519;78.602;50.519;139.347
81.015.625;54.182;52.045;69.750;43.193;143.315
81.054.688;60.592;52.045;58.455;34.646;132.631
81.093.750;75.549;52.961;51.740;30.067;124.695
81.132.813;79.823;48.993;46.551;26.099;134.463
81.171.875;73.413;45.330;46.245;24.878;140.568
81.210.938;56.013;40.446;46.551;26.709;129.579
81.250.000;35.867;34.341;41.972;28.236;147.283
81.289.063;25.488;34.341;37.698;27.320;175.672
81.328.125;20.604;39.835;37.393;27.320;170.177
81.367.188;19.383;47.161;44.414;31.593;167.125
81.406.250;24.878;58.761;60.287;43.193;167.125
81.445.313;24.878;61.813;68.223;52.656;136.600
81.484.375;13.278;44.719;54.487;47.772;119.200
81.523.438;0,529861111;27.930;36.172;38.004;135.379
81.562.500;-0.1984;31.593;38.309;42.277;202.228
81.601.563;1,377777778;44.414;54.182;54.487;305.708
81.640.625;1,802083333;46.245;55.708;51.740;333.486
81.679.688;-0.7784;35.867;38.614;34.341;231.227
81.718.750;-22.131;25.183;20.299;20.910;88.065
81.757.813;-24.267;20.604;5,405555556;16.026;-17.247
81.796.875;-19.689;19.689;0,954166667;12.057;-70.665
81.835.938;-16.331;20.299;2,861805556;6,677083333;-41.667
81.875.000;-10.226;23.657;15.415;10.531;38.004
81.914.063;-0.4731;21.825;20.604;3,921527778;70.360
81.953.125;-0.9615;5,405555556;5,829166667;-14.194;38.004
81.992.188;-21.215;-0.2289;-0.2595;-31.288;19.689
82.031.250;-32.204;-0.5037;-0.2595;-30.372;29.151
82.070.313;-36.172;-0.8394;-0.2289;-26.099;10.531
82.109.375;-34.951;-0.6563;-0.2900;-25.183;-59.676
82.148.438;-40.140;-0.1068;-0.2289;-23.962;-145.147
82.187.500;-47.466;0,10625;-0.2900;-20.299;-174.756
82.226.563;-51.435;-0.1068;-0.7173;-15.720;-145.147
82.265.625;-50.519;-0.0153;-0.8700;-0.9921;-49.603
82.304.688;-41.361;5,405555556;1,802083333;1,802083333;90.201
82.343.750;-33.425;16.331;17.857;16.026;169.261
82.382.813;-31.288;14.499;21.520;18.162;145.452
82.421.875;-27.930;6,041666667;19.689;12.363;65.171
82.460.938;-18.162;6,889583333;19.383;5,617361111;20.299
82.500.000;-0.9310;14.194;19.078;6,677083333;38.004
82.539.063;-0.5952;15.720;17.247;17.247;73.718
82.578.125;-0.7479;14.499;5,829166667;19.078;116.148
82.617.188;-14.499;12.363;-0.5037;4,98125;167.125
82.656.250;-18.162;6,889583333;-13.584;-0.9921;208.944
82.695.313;-19.078;4,345833333;-16.026;-21.215;210.775
82.734.375;-32.509;1,165972222;-14.805;-22.131;158.578
82.773.438;-45.024;0,741666667;-0.6258;-16.941;71.581
82.812.500;-47.772;4,133333333;2,013888889;-0.9615;-25.488
82.851.563;-49.603;13.889;10.531;1,377777778;-92.033
82.890.625;-46.245;23.962;19.383;11.447;-107.295
82.929.688;-40.140;29.151;23.046;14.194;-80.739
82.968.750;-37.393;27.015;20.604;14.805;-33.120
83.007.813;-40.446;19.383;12.363;11.142;-23.962
83.046.875;-45.635;11.752;1,165972222;2,225694444;-51.129
83.085.938;-48.687;6,041666667;-0.4731;-0.2900;-50.824
83.125.000;-51.740;3,073611111;-11.447;-0.7784;-0.3510
83.164.063;-51.435;2,225694444;-14.194;-0.6563;49.908
83.203.125;-50.214;5,829166667;-0.9615;1,589583333;61.203
83.242.188;-50.824;10.836;-11.142;4,133333333;35.256
83.281.250;-53.266;6,677083333;-18.162;2,225694444;4,133333333
83.320.313;-59.982;4,345833333;-21.825;0,318055556;-0.6563
83.359.375;-56.013;2,225694444;-18.468;1,165972222;14.194
83.398.438;-40.140;3,709722222;-0.6563;11.447;71.886
83.437.500;-29.151;4,133333333;0,10625;21.520;89.896
83.476.563;-22.741;1,377777778;-0.5037;19.689;29.151
83.515.625;-12.363;-0.0153;-0.9005;12.973;-27.930
83.554.688;0,741666667;2,225694444;-0.6258;10.531;-33.730
83.593.750;10.531;6,041666667;-0.2900;10.226;-36.477
83.632.813;5,617361111;6,253472222;-0.3205;5,617361111;-78.907
83.671.875;0,318055556;2,861805556;-0.9310;-0.0458;-126.526
83.710.938;-0.0763;0,318055556;-14.805;-11.142;-136.294
83.750.000;-0.3816;-0.1984;-15.415;-11.447;-111.874
83.789.063;-10.226;-0.5342;-12.057;-0.4731;-54.792
83.828.125;-0.6563;-0.1068;-0.1679;0,741666667;38.919
83.867.188;-0.2289;4,557638889;10.836;5,405555556;117.674
83.906.250;-0.7479;4,345833333;14.499;11.447;114.316
83.945.313;-11.142;0,741666667;6,465277778;5,19375;65.781
83.984.375;-0.7173;-0.1374;0,741666667;0,741666667;25.488
84.023.438;0,10625;-0.1679;-0.2900;-0.1374;5,19375
84.062.500;4,557638889;-0.0763;0,10625;1,165972222;1,377777778
84.101.563;4,345833333;-0.1374;2,225694444;4,98125;-0.9921
84.140.625;-0.0153;-0.5037;0,10625;6,253472222;-17.552
84.179.688;-0.4731;-0.5037;-0.5952;6,041666667;-36.477
84.218.750;-0.9921;-0.5647;-14.805;5,19375;-96.306
84.257.813;-19.078;-13.584;-25.488;3,709722222;-156.136
84.296.875;-20.604;-18.773;-26.404;5,19375;-136.905
84.335.938;-0.9310;-11.752;-13.278;17.552;-64.560
84.375.000;0,741666667;-0.3816;-0.1679;23.962;-21.520
84.414.063;2,4375;-11.142;-0.6563;16.331;-19.994
84.453.125;2,225694444;-17.247;-0.9310;12.668;-46.245
84.492.188;0,10625;-10.226;-0.3816;14.499;-84.707
84.531.250;-0.6868;-0.5647;-0.4426;4,133333333;-105.464
84.570.313;-13.584;-0.7479;-12.057;-0.7479;-101.801
84.609.375;-19.994;-12.363;-23.352;-21.825;-124.695
84.648.438;-30.983;-17.857;-30.678;-30.983;-175.672
84.687.500;-40.140;-22.436;-29.762;-27.015;-164.072
84.726.563;-40.446;-20.604;-21.520;-12.363;-72.192
84.765.625;-36.172;-11.752;-10.836;-0.1374;-15.110
84.804.688;-31.899;-0.6258;-0.9005;-0.5952;-48.687
84.843.750;-27.625;-0.8394;-13.278;-17.552;-87.759
84.882.813;-28.236;-13.278;-17.552;-25.794;-97.222
84.921.875;-34.646;-19.383;-23.657;-30.983;-102.411
84.960.938;-42.582;-23.657;-25.794;-29.151;-76.770
85.000.000;-49.603;-24.573;-21.215;-16.026;-0.7173
85.039.063;-43.193;-20.604;-18.162;-0.3205;57.845
85.078.125;-31.288;-17.247;-23.962;-0.1068;70.055
85.117.188;-28.236;-14.499;-30.678;-0.2900;54.487
85.156.250;-27.320;-0.6563;-32.204;-0.4426;26.709
85.195.313;-29.457;-0.1679;-35.256;-0.9310;-50.824
85.234.375;-32.204;-0.2289;-34.646;-11.142;-108.822
85.273.438;-30.067;-0.3205;-27.015;-0.7784;-97.833
85.312.500;-31.593;-0.8394;-22.436;-0.8089;-118.590
85.351.563;-41.972;-15.720;-19.078;-11.142;-160.104
85.390.625;-53.877;-21.520;-18.162;-12.668;-156.746
85.429.688;-63.645;-24.267;-19.078;-10.226;-107.601
85.468.750;-73.718;-23.657;-17.552;-0.3205;-43.193
85.507.813;-80.128;-29.762;-21.825;-0.1068;-33.425
85.546.875;-71.886;-30.067;-21.825;-0.1679;-27.015
85.585.938;-52.656;-13.889;-0.9921;2,013888889;16.026
85.625.000;-41.056;-0.1374;-0.4121;6,041666667;31.899
85.664.063;-37.698;2,861805556;0,10625;16.941;34.035
85.703.125;-34.341;5,829166667;3,285416667;26.099;6,253472222
85.742.188;-30.983;4,345833333;-0.2289;26.404;-68.529
85.781.250;-31.288;-0.0763;-14.194;19.689;-106.990
85.820.313;-33.120;-0.4426;-16.026;17.247;-43.803
85.859.375;-31.593;-0.1984;-0.9615;19.689;14.194
85.898.438;-30.678;-0.6563;-12.057;15.415;-25.183
85.937.500;-28.541;-15.415;-21.215;4,345833333;-70.971
85.976.563;-27.625;-18.468;-24.878;1,802083333;-79.823
86.015.625;-30.983;-17.552;-25.488;-0.0763;-97.833
86.054.688;-33.425;-18.773;-27.625;-0.9005;-86.538
86.093.750;-39.530;-24.573;-30.678;-15.110;-43.803
86.132.813;-44.109;-33.730;-34.341;-16.941;-16.636
86.171.875;-45.940;-39.530;-37.393;-17.857;-12.973
86.210.938;-54.792;-35.867;-35.256;-14.805;-11.752
86.250.000;-62.118;-26.709;-34.341;-11.142;-0.4426
86.289.063;-59.982;-22.131;-42.582;-16.026;-13.278
86.328.125;-54.182;-20.604;-49.908;-23.352;-20.910
86.367.188;-41.056;-12.668;-41.667;-21.520;-10.226
86.406.250;-18.773;-0.2595;-27.930;-18.468;-36.172
86.445.313;-0.9005;-0.2900;-20.604;-19.689;-65.171
86.484.375;-13.278;-0.7479;-14.499;-19.078;-32.204
86.523.438;-19.383;-0.7173;-0.9005;-15.720;-23.352
86.562.500;-30.067;-10.531;-12.668;-17.247;-85.623
86.601.563;-46.245;-19.994;-22.741;-23.352;-135.073
86.640.625;-65.781;-33.120;-37.698;-32.204;-172.619
86.679.688;-83.791;-50.824;-58.455;-45.330;-230.922
86.718.750;-99.969;-59.982;-66.087;-49.908;-233.974
86.757.813;-120.421;-59.982;-61.813;-46.245;-215.049
86.796.875;-133.852;-58.455;-59.371;-47.772;-250.458
86.835.938;-128.053;-49.908;-49.603;-46.551;-272.131
86.875.000;-109.432;-37.393;-36.783;-41.056;-255.037
86.914.063;-88.065;-33.425;-34.341;-39.530;-243.742
86.953.125;-77.991;-39.530;-38.309;-40.751;-237.332
86.992.188;-73.718;-46.856;-36.783;-39.835;-225.122
87.031.250;-67.002;-50.824;-30.983;-35.867;-221.764
87.070.313;-65.171;-48.993;-26.404;-30.067;-224.512
87.109.375;-68.223;-40.140;-21.215;-22.741;-230.617
87.148.438;-74.023;-37.698;-25.488;-21.215;-245.879
87.187.500;-80.128;-41.667;-41.361;-29.151;-238.858
87.226.563;-85.012;-39.530;-56.013;-39.530;-215.354
87.265.625;-88.065;-32.509;-63.339;-46.856;-211.691
87.304.688;-83.791;-24.878;-60.897;-48.382;-232.143
87.343.750;-74.634;-20.604;-56.013;-45.024;-280.983
87.382.813;-69.444;-20.604;-54.182;-37.698;-324.328
87.421.875;-67.002;-20.604;-49.603;-26.099;-325.855
87.460.938;-63.645;-20.910;-41.361;-16.026;-326.160
87.500.000;-59.982;-22.131;-32.509;-12.668;-353.022
87.539.063;-55.403;-25.183;-25.183;-14.805;-365.537
87.578.125;-53.266;-29.457;-24.267;-19.994;-335.928
87.617.188;-54.182;-27.625;-24.878;-19.383;-277.930
87.656.250;-53.266;-18.773;-20.910;-0.8089;-222.375
87.695.313;-51.740;-14.194;-16.941;2,861805556;-190.324
87.734.375;-54.182;-15.110;-14.499;10.836;-169.261
87.773.438;-59.066;-17.552;-12.668;14.194;-139.652
87.812.500;-62.424;-23.962;-13.889;15.110;-109.737
87.851.563;-61.203;-31.593;-19.383;12.057;-91.422
87.890.625;-56.319;-32.204;-26.709;5,19375;-84.402
87.929.688;-53.877;-29.457;-33.425;2,4375;-71.581
87.968.750;-58.761;-33.425;-40.140;-0.2595;-66.087
88.007.813;-63.645;-40.446;-43.193;-10.531;-112.485
88.046.875;-63.339;-42.582;-40.140;-16.636;-153.083
88.085.938;-66.697;-42.277;-37.393;-22.741;-99.969
88.125.000;-77.991;-45.940;-41.972;-31.288;-12.057
88.164.063;-85.928;-49.908;-51.740;-41.056;6,677083333
88.203.125;-81.960;-51.129;-61.508;-51.740;-52.350
88.242.188;-66.697;-45.940;-64.560;-58.455;-128.358
88.281.250;-54.182;-33.120;-58.150;-54.182;-153.388
88.320.313;-52.045;-16.026;-43.803;-41.667;-148.199
88.359.375;-52.045;-0.0458;-25.794;-26.709;-138.736
88.398.438;-55.708;3,921527778;-12.363;-15.720;-133.852
88.437.500;-63.339;0,954166667;-0.6258;-12.057;-148.810
88.476.563;-68.834;-0.5647;-0.4426;-12.973;-171.398
88.515.625;-73.413;-12.057;-0.1984;-12.363;-174.145
88.554.688;-74.328;-14.805;2,861805556;-0.8089;-140.568
88.593.750;-71.276;-13.889;10.226;-0.5037;-79.823
88.632.813;-67.002;-14.194;10.531;-0.5037;-23.657
88.671.875;-61.813;-17.247;3,709722222;-0.9615;16.941
88.710.938;-55.708;-19.383;-0.0153;-17.247;32.814
88.750.000;-48.993;-16.941;-0.2900;-22.741;16.941
88.789.063;-44.414;-13.278;-0.3510;-22.436;-19.689
88.828.125;-42.277;-12.363;-0.1374;-17.552;-52.656
88.867.188;-38.309;-11.142;0,10625;-12.973;-46.551
88.906.250;-30.372;-0.8700;-0.2289;-11.447;-27.320
88.945.313;-23.657;-0.8394;-11.447;-12.668;-34.035
88.984.375;-25.488;-11.142;-20.604;-14.805;-33.120
89.023.438;-34.951;-15.720;-23.962;-14.194;-0.0458
89.062.500;-45.330;-22.436;-23.962;-13.584;33.120
89.101.563;-49.603;-27.625;-24.267;-17.857;44.414
89.140.625;-44.414;-27.015;-21.215;-24.573;43.803
89.179.688;-38.614;-23.962;-16.636;-31.593;67.613
89.218.750;-41.972;-25.183;-17.247;-42.277;134.768
89.257.813;-48.993;-29.762;-22.131;-51.740;189.103
89.296.875;-52.045;-31.899;-22.741;-50.824;175.061
89.335.938;-50.824;-30.983;-16.636;-40.446;99.359
89.375.000;-50.519;-27.015;-0.7784;-27.625;-19.383
89.414.063;-52.656;-20.299;0,318055556;-16.636;-135.684
89.453.125;-52.961;-14.805;6,253472222;-0.9005;-198.565
